File: data/DE_40_8_60.mpt
EC-Lab ASCII FILE
Nb header lines : 75

Potentio Electrochemical Impedance Spectroscopy

Run on channel : 4 (SN 4192)
User :
CE vs. WE compliance from -10 V to 10 V
Electrode connection : standard
Ewe ctrl range : min = -10.00 V, max = 10.00 V
Safety Limits :
	Do not start on E overload
Acquisition started on : 01/24/2020 09:51:56
Technique started on : 01/24/2020 09:51:57
Saved on :
	File : DE_40_8_60.mpr
	Directory : P:\Chemistry\Data\VMP3\Kyler\DOE\DE_40\2ND 60C\
	Host : 10.0.4.99
Device : VMP3 (SN 0183)
Address : USB
EC-Lab for windows v11.33 (software)
Internet server v11.32 (firmware)
Command interpretor v11.33 (firmware)
Electrode material :
Initial state :
Electrolyte :
Comments :
Electrode surface area : 0.001 cm²
Characteristic mass : 0.001 g
Equivalent Weight : 0.000 g/eq.
Density : 0.000 g/cm3
Record Analogic IN 1
Cycle Definition : Charge/Discharge alternance
External device configuration :
   device type : Thermostat
   device name : Other
   Analog OUT :
      mode : E/V
      unit : T/°C
      max : 400.000 at 5.000 V
      min : -100.000 at 0.000 V
      current : 0.000
   Analog IN 1 :
      unit : T/°C
      max : 400.000 at 5.000 V
      min : -100.000 at 0.000 V
Mode                Single sine
E (V)               0.0000
vs.                 Eoc
tE (h:m:s)          0:00:0.0000
record              0
dI                  1.000
unit dI             mA
dt (s)              0.000
fi                  1.000
unit fi             MHz
ff                  1.000
unit ff             Hz
Nd                  20
Points              per decade
spacing             Logarithmic
Va (mV)             128.0
pw                  0.50
Na                  3
corr                0
E range min (V)     -10.000
E range max (V)     10.000
I Range             Auto
Bandwidth           5
nc cycles           0
goto Ns'            0
nr cycles           0
inc. cycle          1

freq/Hz	Re(Z)/Ohm	-Im(Z)/Ohm	|Z|/Ohm	Phase(Z)/deg	time/s	<Ewe>/V	<I>/mA	Cs/µF	Cp/µF	cycle number	I Range	|Ewe|/V	|I|/A	(Q-Qo)/mA.h	Analog OUT/V	Analog IN 1/V	Re(Y)/Ohm-1	Im(Y)/Ohm-1	|Y|/Ohm-1	Phase(Y)/deg	dq/mA.h
1.00002e+06	69.285	28.3205	74.8496	-22.2324	1.64647	0.00117407	0.00193753	0.00561968	0.000804514	1	11	0.000578499	7.72883e-06	4.1959e-07	0.0000000E+000	-100.097	0.0123669	0.00505501	0.0133601	22.2324	4.1959e-07
794333	75.4006	24.8725	79.3971	-18.2562	2.83849	0.00161295	0.00266506	0.00805562	0.000790547	1	11	0.000557124	7.01693e-06	1.31087e-06	0.0000000E+000	-100.137	0.011961	0.00394557	0.0125949	18.2562	5.57779e-07
630957	80.1202	21.1219	82.8576	-14.7688	4.80949	0.00193367	0.00300975	0.0119423	0.00077605	1	11	0.00119074	1.43709e-05	5.76266e-05	0.0000000E+000	-100.073	0.0116702	0.00307659	0.0120689	14.7688	2.88844e-05
501206	84.4493	18.5557	86.4638	-12.3924	6.00249	0.00206549	0.00354912	0.017113	0.000788155	1	11	0.00585472	6.7713e-05	5.85137e-05	0.0000000E+000	-100.145	0.0112961	0.00248204	0.0115655	12.3924	4.92684e-07
398103	87.0041	15.9934	88.4619	-10.416	7.19348	0.00219547	0.00354112	0.0249968	0.000817056	1	11	0.0139533	0.000157733	5.98599e-05	0.0000000E+000	-100.097	0.011118	0.00204375	0.0113043	10.416	7.00829e-07
316230	88.9907	13.6673	90.0341	-8.73131	8.38349	0.00224498	0.00357723	0.0368244	0.000848564	1	11	0.0257195	0.000285664	6.03368e-05	0.0000000E+000	-100.089	0.0109782	0.00168604	0.0111069	8.73131	3.21779e-07
251188	90.2825	11.5918	91.0237	-7.31642	9.57549	0.00225509	0.00357127	0.0546604	0.000886467	1	11	0.041337	0.000454135	6.1065e-05	0.0000000E+000	-100.153	0.0108967	0.00139907	0.0109862	7.31642	-2.78003e-07
199544	90.9716	9.89741	91.5085	-6.20917	10.7685	0.00224582	0.00345589	0.0805863	0.000942717	1	11	0.0608154	0.000664588	6.32258e-05	0.0000000E+000	-100.105	0.0108638	0.00118195	0.010928	6.20917	1.17555e-06
158486	91.5244	8.63056	91.9304	-5.38694	11.9595	0.00220908	0.00319998	0.116356	0.00102553	1	11	0.0838766	0.000912393	6.65011e-05	0.0000000E+000	-100.056	0.0108297	0.00102122	0.0108778	5.38694	1.10656e-06
125909	91.8423	7.75837	92.1694	-4.82859	13.1525	0.00222321	0.00337177	0.162926	0.00115441	1	11	0.1101	0.00119454	7.04348e-05	0.0000000E+000	-100.089	0.0108111	0.000913265	0.0108496	4.82859	1.4613e-06
100004	92.0498	7.24768	92.3347	-4.50198	14.0715	0.00224873	0.0034507	0.219586	0.00135292	1	11	0.140297	0.00151944	7.2441e-05	0.0000000E+000	-100.145	0.0107968	0.000850099	0.0108302	4.50198	4.72471e-07
79433.3	92.2264	7.06714	92.4967	-4.38191	15.2635	0.0022736	0.00366231	0.283514	0.00165504	1	11	0.129931	0.00140471	7.92122e-05	0.0000000E+000	-100.129	0.0107796	0.00082602	0.0108112	4.38191	3.66381e-06
63093.8	92.3067	7.22761	92.5892	-4.47712	16.4545	0.00228326	0.00386239	0.34901	0.0021267	1	11	0.12961	0.00139984	7.93608e-05	0.0000000E+000	-100.137	0.0107674	0.00084309	0.0108004	4.47712	-7.80659e-07
50122.5	92.3748	7.72219	92.697	-4.7786	17.6465	0.00228192	0.00363384	0.411195	0.00285362	1	11	0.129496	0.00139699	8.25559e-05	0.0000000E+000	-100.097	0.0107503	0.000898688	0.0107878	4.7786	2.17636e-06
39814.1	92.4569	8.58899	92.8549	-5.30739	18.7015	0.00227953	0.00352776	0.465416	0.00398213	1	11	0.140046	0.00150822	8.28082e-05	0.0000000E+000	-100.048	0.0107233	0.000996167	0.0107695	5.30739	-3.75152e-08
31621.1	92.57	9.88703	93.0965	-6.09642	19.7555	0.00232038	0.00384173	0.509069	0.00574172	1	11	0.139525	0.00149871	8.43808e-05	0.0000000E+000	-100.089	0.0106808	0.00114077	0.0107415	6.09642	9.09768e-07
25116.9	92.7335	11.653	93.4628	-7.16233	20.8105	0.00233454	0.00385011	0.54377	0.00845308	1	11	0.137374	0.00146983	8.75782e-05	0.0000000E+000	-100.137	0.010616	0.00133402	0.0106994	7.16233	1.6328e-06
19948.8	92.9881	13.965	94.0308	-8.54086	21.8645	0.00231555	0.00377975	0.5713	0.0126009	1	11	0.135203	0.00143786	8.82384e-05	0.0000000E+000	-100.097	0.0105169	0.00157942	0.0106348	8.54086	6.31651e-07
15847.7	93.1885	16.9582	94.7189	-10.3137	22.9195	0.00232918	0.00393292	0.59221	0.0189828	1	11	0.129649	0.00136878	8.72573e-05	0.0000000E+000	-100.097	0.010387	0.00189019	0.0105576	10.3137	-1.17009e-06
12590.9	93.5758	20.7299	95.8444	-12.4911	23.8375	0.00233607	0.00399453	0.609768	0.0285251	1	11	0.13561	0.0014149	8.85241e-05	0.0000000E+000	-100.056	0.0101866	0.00225665	0.0104336	12.4911	-2.93659e-07
10002.2	94.1239	25.4681	97.5086	-15.1406	24.7565	0.00232213	0.00382163	0.62478	0.042622	1	11	0.139636	0.00143204	9.14511e-05	0.0000000E+000	-99.9843	0.00989952	0.00267862	0.0102555	15.1406	1.73688e-06
7944	94.8278	31.361	99.8791	-18.2998	25.907	0.00239109	0.00435838	0.638839	0.0629828	1	11	0.130378	0.00130536	9.11973e-05	0.0000000E+000	-100.145	0.00950576	0.0031437	0.0100121	18.2998	3.21045e-07
6307.73	95.8364	38.6844	103.349	-21.9815	27.1186	0.00240455	0.00414528	0.652245	0.0913833	1	11	0.131656	0.00127389	9.31103e-05	0.0000000E+000	-100.073	0.00897252	0.00362176	0.00967592	21.9815	3.38093e-07
5011.6	97.1376	47.6785	108.208	-26.1434	28.5797	0.00243257	0.00439504	0.666072	0.129315	1	11	0.132179	0.00122153	9.56642e-05	0.0000000E+000	-100.073	0.00829601	0.00407197	0.00924147	26.1434	1.34947e-06
3981.27	98.8907	58.7262	115.014	-30.704	30.0997	0.00240298	0.00418342	0.680716	0.177473	1	11	0.132221	0.00114961	9.69531e-05	0.0000000E+000	-100.073	0.00747578	0.00443949	0.00869462	30.704	-9.44299e-08
3161.01	101.158	72.2542	124.312	-35.5373	31.6187	0.00241297	0.00432655	0.696836	0.235413	1	11	0.131932	0.0010613	9.92816e-05	0.0000000E+000	-100.089	0.00654592	0.00467558	0.00804426	35.5373	1.13368e-06
2510.8	104.072	88.7381	136.768	-40.453	33.1377	0.00241717	0.0042253	0.714327	0.300712	1	11	0.131489	0.000961401	0.000102054	0.0000000E+000	-100.113	0.00556373	0.00474398	0.00731167	40.453	1.44774e-06
1995.64	107.787	108.813	153.161	-45.2712	34.6567	0.00241558	0.00410897	0.732923	0.369931	1	11	0.131003	0.000855325	0.000103588	0.0000000E+000	-100.04	0.00459484	0.00463855	0.00652907	45.2712	1.33646e-06
1585.51	112.417	133.361	174.422	-49.8706	36.1757	0.00241325	0.00405705	0.752701	0.440029	1	11	0.130538	0.000748403	0.000104478	0.0000000E+000	-100.121	0.00369516	0.00438358	0.00573324	49.8706	7.00673e-07
1258.79	118.013	163.285	201.468	-54.1427	37.695	0.0024159	0.00433417	0.774318	0.50863	1	11	0.130148	0.000646001	0.00010716	0.0000000E+000	-100.064	0.0029075	0.00402287	0.00496357	54.1427	1.22273e-06
1000.32	124.671	199.565	235.306	-58.0063	39.2127	0.00240867	0.00414191	0.797255	0.573453	1	11	0.12984	0.000551794	0.000108254	0.0000000E+000	-100.056	0.00225165	0.00360427	0.00424978	58.0063	5.95308e-07
794.238	132.726	244.129	277.876	-61.4683	40.7309	0.00240884	0.0041514	0.820825	0.633558	1	11	0.129605	0.000466414	0.000109748	0.0000000E+000	-100.089	0.00171891	0.00316167	0.00359873	61.4683	8.30985e-07
631.01	142.399	298.948	331.131	-64.53	42.5034	0.00238497	0.00046606	0.8437	0.687671	1	12	0.132973	0.000401573	0.000111069	0.0000000E+000	-100.073	0.0012987	0.00272645	0.00301995	64.53	3.8998e-07
501.444	153.783	365.809	396.819	-67.1985	44.0172	0.00238192	0.000470213	0.867647	0.737337	1	12	0.131686	0.000331854	0.000111406	0.0000000E+000	-100.056	0.000976615	0.0023231	0.00252004	67.1985	-9.52581e-08
398.089	167.354	448.417	478.628	-69.5339	45.5367	0.00239601	0.000486473	0.891574	0.782573	1	12	0.130803	0.000273287	0.000111826	0.0000000E+000	-100.113	0.000730531	0.00195742	0.0020893	69.5339	5.05707e-08
316.316	183.533	549.869	579.689	-71.5423	47.0539	0.00238932	0.00048893	0.91504	0.823318	1	12	0.130214	0.000224628	0.000111987	0.0000000E+000	-100.089	0.000546163	0.00163632	0.00172506	71.5423	-9.75426e-08
251.044	202.904	675.328	705.151	-73.277	48.5659	0.00238965	0.000481087	0.93876	0.861034	1	12	0.129819	0.0001841	0.000112173	0.0000000E+000	-100.105	0.000408062	0.00135816	0.00141814	73.277	-3.63611e-08