File: data/DE_40_15_60.mpt
EC-Lab ASCII FILE
Nb header lines : 75

Potentio Electrochemical Impedance Spectroscopy

Run on channel : 3 (SN 20921)
User :
CE vs. WE compliance from -10 V to 10 V
Electrode connection : standard
Ewe ctrl range : min = -10.00 V, max = 10.00 V
Safety Limits :
	Do not start on E overload
Acquisition started on : 01/24/2020 09:55:40
Technique started on : 01/24/2020 09:55:41
Saved on :
	File : DE_40_15_60.mpr
	Directory : P:\Chemistry\Data\VMP3\Kyler\DOE\DE_40\2ND 60C\
	Host : 10.0.4.99
Device : VMP3 (SN 0183)
Address : USB
EC-Lab for windows v11.33 (software)
Internet server v11.32 (firmware)
Command interpretor v11.33 (firmware)
Electrode material :
Initial state :
Electrolyte :
Comments :
Electrode surface area : 0.001 cm²
Characteristic mass : 0.001 g
Equivalent Weight : 0.000 g/eq.
Density : 0.000 g/cm3
Record Analogic IN 1
Cycle Definition : Charge/Discharge alternance
External device configuration :
   device type : Thermostat
   device name : Other
   Analog OUT :
      mode : E/V
      unit : T/°C
      max : 400.000 at 5.000 V
      min : -100.000 at 0.000 V
      current : 0.000
   Analog IN 1 :
      unit : T/°C
      max : 400.000 at 5.000 V
      min : -100.000 at 0.000 V
Mode                Single sine
E (V)               0.0000
vs.                 Eoc
tE (h:m:s)          0:00:0.0000
record              0
dI                  1.000
unit dI             mA
dt (s)              0.000
fi                  1.000
unit fi             MHz
ff                  1.000
unit ff             Hz
Nd                  20
Points              per decade
spacing             Logarithmic
Va (mV)             128.0
pw                  0.50
Na                  3
corr                0
E range min (V)     -10.000
E range max (V)     10.000
I Range             Auto
Bandwidth           5
nc cycles           0
goto Ns'            0
nr cycles           0
inc. cycle          1

freq/Hz	Re(Z)/Ohm	-Im(Z)/Ohm	|Z|/Ohm	Phase(Z)/deg	time/s	<Ewe>/V	<I>/mA	Cs/µF	Cp/µF	cycle number	I Range	|Ewe|/V	|I|/A	(Q-Qo)/mA.h	Analog OUT/V	Analog IN 1/V	Re(Y)/Ohm-1	Im(Y)/Ohm-1	|Y|/Ohm-1	Phase(Y)/deg	dq/mA.h
1.00002e+06	14.1491	1.05985	14.1887	-4.28377	1.8456	-0.0615278	0.24948	0.150165	0.000837852	1	9	3.64935e-05	2.57201e-06	2.59286e-05	0.0000000E+000	-100.096	0.0702815	0.00526448	0.0704784	4.28377	2.59286e-05
794333	65.0697	15.5666	66.9058	-13.454	3.61549	-0.0608422	0.00206679	0.0128713	0.000696762	1	11	0.0011395	1.70314e-05	5.03282e-05	0.0000000E+000	-100.08	0.0145362	0.0034775	0.0149464	13.454	4.51318e-07
630957	69.0761	12.9594	70.2812	-10.6258	4.80647	-0.0602646	0.00226437	0.0194642	0.0006618	1	11	0.00416252	5.92267e-05	5.10441e-05	0.0000000E+000	-100.072	0.0139846	0.00262365	0.0142286	10.6258	4.53439e-07
501206	72.0115	11.1344	72.8672	-8.78948	5.99648	-0.0599027	0.00201237	0.0285191	0.000665897	1	11	0.00960052	0.000131754	5.14824e-05	0.0000000E+000	-100.056	0.0135624	0.00209702	0.0137236	8.78948	-5.51152e-09
398103	73.9566	9.53784	74.5691	-7.3486	7.18848	-0.0597562	0.00208339	0.0419155	0.000685734	1	11	0.0176531	0.000236734	5.16584e-05	0.0000000E+000	-100.04	0.0133002	0.00171527	0.0134104	7.3486	-1.72666e-07
316230	75.1971	8.07211	75.6291	-6.12701	8.37848	-0.059756	0.00201462	0.0623491	0.000710274	1	11	0.0285683	0.000377742	5.34452e-05	0.0000000E+000	-100.08	0.0131469	0.00141127	0.0132224	6.12701	6.49536e-07
251188	75.94	6.8278	76.2463	-5.13768	9.57048	-0.0597473	0.00213689	0.0927985	0.000744157	1	11	0.0426058	0.000558791	5.20444e-05	0.0000000E+000	-100.072	0.0130627	0.00117447	0.0131154	5.13768	-6.92743e-07
199544	76.3539	5.84451	76.5773	-4.37717	10.7615	-0.0597146	0.00227352	0.136469	0.000794934	1	11	0.0600491	0.000784163	5.18407e-05	0.0000000E+000	-100.08	0.0130206	0.000996663	0.0130587	4.37717	-9.01935e-07
158486	76.5939	5.13789	76.7661	-3.83763	11.9535	-0.0596819	0.00236728	0.195454	0.000875539	1	11	0.080588	0.00104979	5.40166e-05	0.0000000E+000	-100.104	0.0129974	0.000871859	0.0130266	3.83763	1.68716e-06
125909	76.7332	4.68734	76.8762	-3.49564	13.1445	-0.0596795	0.00222545	0.269672	0.00100255	1	11	0.104121	0.00135439	5.15175e-05	0.0000000E+000	-100.072	0.0129837	0.000793127	0.0130079	3.49564	-1.39205e-06
100004	76.8442	4.458	76.9734	-3.3202	14.0635	-0.0596663	0.00236301	0.356996	0.00119746	1	11	0.131446	0.00170769	5.1703e-05	0.0000000E+000	-100.096	0.0129697	0.000752416	0.0129915	3.3202	5.43541e-07
79433.3	76.9137	4.43565	77.0415	-3.30062	15.2535	-0.0595468	0.00253207	0.451711	0.00149736	1	11	0.129631	0.00168261	4.76836e-05	0.0000000E+000	-100.104	0.0129585	0.000747323	0.01298	3.30062	-1.15576e-06
63093.8	76.9662	4.63002	77.1053	-3.44256	16.4435	-0.0595165	0.0023509	0.544817	0.00196448	1	11	0.129537	0.00168	4.92255e-05	0.0000000E+000	-100.112	0.0129459	0.000778778	0.0129693	3.44256	1.58249e-08
50122.5	77.0167	5.03369	77.1811	-3.73944	17.6345	-0.0595036	0.00213935	0.630813	0.0026832	1	11	0.129455	0.00167729	5.18651e-05	0.0000000E+000	-100.088	0.012929	0.000845017	0.0129565	3.73944	2.78954e-06
39814.1	77.0699	5.68122	77.279	-4.21594	18.6895	-0.0594863	0.00196787	0.703626	0.00380279	1	11	0.140712	0.00182083	5.24182e-05	0.0000000E+000	-100.056	0.0129051	0.000951302	0.0129401	4.21594	1.49766e-06
31621.1	77.1426	6.59769	77.4242	-4.88838	19.7435	-0.0594469	0.00201372	0.76287	0.00553963	1	11	0.14042	0.00181365	5.33529e-05	0.0000000E+000	-100.072	0.0128689	0.00110062	0.0129159	4.88838	3.97463e-07
25116.9	77.231	7.82914	77.6268	-5.78847	20.7995	-0.0594121	0.00230002	0.809356	0.00823274	1	11	0.138509	0.0017843	5.397e-05	0.0000000E+000	-100.032	0.0128165	0.00129924	0.0128821	5.78847	-9.42752e-07
19948.8	77.3427	9.43169	77.9157	-6.9527	21.8545	-0.059394	0.00232238	0.845891	0.0123949	1	11	0.136329	0.0017497	5.66455e-05	0.0000000E+000	-100.04	0.01274	0.0015536	0.0128344	6.9527	8.19804e-08
15847.7	77.4941	11.4751	78.3391	-8.42295	22.9095	-0.0593731	0.00238911	0.875184	0.0187781	1	11	0.134136	0.00171225	5.4293e-05	0.0000000E+000	-100.064	0.0126273	0.00186981	0.012765	8.42295	-1.13106e-06
12590.9	77.696	14.0593	78.9578	-10.2568	23.9655	-0.0593825	0.00235667	0.899081	0.0285059	1	11	0.129481	0.00163988	5.28981e-05	0.0000000E+000	-100.08	0.0124626	0.00225514	0.012665	10.2568	-2.78903e-06
10002.2	77.9699	17.3114	79.8686	-12.5181	24.8855	-0.0593724	0.00231381	0.919159	0.0431821	1	11	0.134556	0.00168471	5.20342e-05	0.0000000E+000	-100.08	0.0122229	0.00271382	0.0125206	12.5181	-1.25967e-06
7944	78.3329	21.3828	81.199	-15.2683	25.894	-0.0593583	0.00244912	0.936949	0.0649748	1	11	0.137921	0.00169856	5.23499e-05	0.0000000E+000	-100.088	0.0118807	0.00324313	0.0123154	15.2683	6.55231e-07
6307.73	78.7919	26.4715	83.1198	-18.5707	27.1055	-0.0593447	0.0023632	0.953165	0.0966755	1	11	0.139971	0.00168397	5.37237e-05	0.0000000E+000	-100.088	0.0114044	0.00383151	0.0120308	18.5707	1.22293e-06
5011.6	79.3691	32.7805	85.8721	-22.4413	28.7877	-0.0593195	0.00255387	0.968785	0.141174	1	11	0.129281	0.00150551	5.63065e-05	0.0000000E+000	-100.072	0.0107633	0.00444541	0.0116452	22.4413	2.21055e-06
3981.27	80.1524	40.608	89.8522	-26.8683	30.3077	-0.059346	0.00229721	0.984435	0.201072	1	11	0.129645	0.00144287	5.74324e-05	0.0000000E+000	-100.024	0.00992794	0.00502984	0.0111294	26.8683	-4.28758e-07
3161.01	81.176	50.3305	95.5129	-31.7996	31.8277	-0.0593307	0.00252367	1.00038	0.27778	1	11	0.129564	0.00135651	5.82857e-05	0.0000000E+000	-100.08	0.00889824	0.00551706	0.0104698	31.7996	2.96535e-07
2510.8	82.505	62.3385	103.408	-37.0737	33.3477	-0.0593313	0.00240251	1.01684	0.369537	1	11	0.129208	0.0012495	5.76637e-05	0.0000000E+000	-100.104	0.00771567	0.00582975	0.00967045	37.0737	-2.40964e-07
1995.64	84.2047	77.1191	114.183	-42.4851	34.8677	-0.0593392	0.00233951	1.03413	0.471733	1	11	0.128713	0.00112725	5.83771e-05	0.0000000E+000	-100.04	0.00645851	0.00591505	0.00875786	42.4851	-2.36834e-07
1585.51	86.3394	95.3878	128.66	-47.8505	36.3877	-0.0593281	0.00233	1.05235	0.578441	1	11	0.128179	0.000996263	5.99635e-05	0.0000000E+000	-100.064	0.00521583	0.00576245	0.00777244	47.8505	1.48373e-07
1258.79	89.027	118.011	147.826	-52.9694	37.9089	-0.0593316	0.00233186	1.07138	0.682793	1	11	0.127677	0.0008637	6.16565e-05	0.0000000E+000	-100.096	0.004074	0.00540036	0.00676471	52.9694	4.65931e-07
1000.32	92.3246	145.842	172.609	-57.6643	39.4267	-0.0593498	0.00213913	1.09093	0.778823	1	11	0.127266	0.000737307	6.34402e-05	0.0000000E+000	-100.072	0.0030988	0.00489506	0.00579346	57.6643	1.10456e-06
794.238	96.4183	180.36	204.514	-61.8715	40.9449	-0.0593398	0.00231619	1.11104	0.864095	1	11	0.126939	0.000620685	6.46569e-05	0.0000000E+000	-100.096	0.00230522	0.00431213	0.00488963	61.8715	1.69764e-07
631.01	101.408	222.964	244.942	-65.5431	42.4654	-0.0593334	0.00237416	1.13123	0.937331	1	11	0.1267	0.000517266	6.62641e-05	0.0000000E+000	-100.04	0.00169024	0.00371629	0.00408261	65.5431	7.38e-07
501.444	107.543	275.623	295.861	-68.6851	44.2292	-0.0593415	0.000220798	1.15155	0.999397	1	12	0.129841	0.000438859	6.67011e-05	0.0000000E+000	-100.056	0.00122859	0.00314877	0.00337997	68.6851	1.73873e-07
398.089	115.144	341.049	359.962	-71.3444	45.7487	-0.0593464	0.000223799	1.17226	1.05231	1	12	0.128588	0.000357227	6.70883e-05	0.0000000E+000	-100.056	0.000888648	0.00263211	0.00277807	71.3444	2.40516e-07
316.316	124.465	421.792	439.773	-73.5594	47.2659	-0.0593398	0.000210933	1.19289	1.09734	1	12	0.127752	0.000290494	6.7238e-05	0.0000000E+000	-100.064	0.000643561	0.00218093	0.0022739	73.5594	1.97311e-07
251.044	136.085	522.308	539.745	-75.3965	48.7779	-0.0593502	0.000186917	1.21379	1.13663	1	12	0.127196	0.000235659	6.69637e-05	0.0000000E+000	-100.048	0.000467127	0.00179287	0.00185273	75.3965	-1.11173e-07
199.553	150.404	645.942	663.222	-76.8926	50.3022	-0.059352	0.000206529	1.23472	1.17122	1	12	0.126842	0.000191251	6.7148e-05	0.0000000E+000	-100.072	0.000341934	0.00146851	0.00150779	76.8926	2.4366e-07
158.428	168.354	799.697	817.226	-78.1115	51.8367	-0.0593423	0.000205149	1.25621	1.2029	1	12	0.126603	0.000154918	6.72981e-05	0.0000000E+000	-100.056	0.000252081	0.00119741	0.00122365	78.1115	-7.25558e-08
125.846	190.725	989.978	1008.18	-79.0952	53.3454	-0.0593482	0.000213518	1.27749	1.23177	1	12	0.126453	0.000125427	6.74182e-05	0.0000000E+000	-100.024	0.000187642	0.000973973	0.000991883	79.0952	-3.94492e-08
100.032	218.614	1224.4	1243.76	-79.8766	54.8507	-0.0593517	0.000186578	1.29945	1.2593	1	12	0.126357	0.000101593	6.74808e-05	0.0000000E+000	-100.064	0.00014132	0.000791497	0.000804014	79.8766	9.19489e-08
79.4155	253.43	1516.14	1537.17	-80.5105	56.3822	-0.0593478	0.000213555	1.32183	1.2859	1	12	0.126288	8.21563e-05	6.75558e-05	0.0000000E+000	-100.08	0.000107254	0.000641644	0.000650546	80.5105	-4.97737e-08