File: data/DE_40_11_60.mpt
EC-Lab ASCII FILE
Nb header lines : 75

Potentio Electrochemical Impedance Spectroscopy

Run on channel : 3 (SN 20921)
User :
CE vs. WE compliance from -10 V to 10 V
Electrode connection : standard
Ewe ctrl range : min = -10.00 V, max = 10.00 V
Safety Limits :
	Do not start on E overload
Acquisition started on : 01/24/2020 09:53:15
Technique started on : 01/24/2020 09:53:16
Saved on :
	File : DE_40_11_60.mpr
	Directory : P:\Chemistry\Data\VMP3\Kyler\DOE\DE_40\2ND 60C\
	Host : 10.0.4.99
Device : VMP3 (SN 0183)
Address : USB
EC-Lab for windows v11.33 (software)
Internet server v11.32 (firmware)
Command interpretor v11.33 (firmware)
Electrode material :
Initial state :
Electrolyte :
Comments :
Electrode surface area : 0.001 cm²
Characteristic mass : 0.001 g
Equivalent Weight : 0.000 g/eq.
Density : 0.000 g/cm3
Record Analogic IN 1
Cycle Definition : Charge/Discharge alternance
External device configuration :
   device type : Thermostat
   device name : Other
   Analog OUT :
      mode : E/V
      unit : T/°C
      max : 400.000 at 5.000 V
      min : -100.000 at 0.000 V
      current : 0.000
   Analog IN 1 :
      unit : T/°C
      max : 400.000 at 5.000 V
      min : -100.000 at 0.000 V
Mode                Single sine
E (V)               0.0000
vs.                 Eoc
tE (h:m:s)          0:00:0.0000
record              0
dI                  1.000
unit dI             mA
dt (s)              0.000
fi                  1.000
unit fi             MHz
ff                  1.000
unit ff             Hz
Nd                  20
Points              per decade
spacing             Logarithmic
Va (mV)             128.0
pw                  0.50
Na                  3
corr                0
E range min (V)     -10.000
E range max (V)     10.000
I Range             Auto
Bandwidth           5
nc cycles           0
goto Ns'            0
nr cycles           0
inc. cycle          1

freq/Hz	Re(Z)/Ohm	-Im(Z)/Ohm	|Z|/Ohm	Phase(Z)/deg	time/s	<Ewe>/V	<I>/mA	Cs/µF	Cp/µF	cycle number	I Range	|Ewe|/V	|I|/A	(Q-Qo)/mA.h	Analog OUT/V	Analog IN 1/V	Re(Y)/Ohm-1	Im(Y)/Ohm-1	|Y|/Ohm-1	Phase(Y)/deg	dq/mA.h
1.00002e+06	20.5924	-6.03541	21.4586	16.3353	1.8466	0.0207179	0.245919	-0.0263697	-0.00208601	1	9	3.15169e-05	1.46873e-06	2.59127e-05	0.0000000E+000	-100.072	0.0447201	-0.013107	0.0466013	-16.3353	2.59127e-05
707950	85.7041	32.3624	91.6107	-20.6868	4.21347	0.0217145	0.00229363	0.00694668	0.000866893	1	11	0.00301075	3.28646e-05	5.12881e-05	0.0000000E+000	-100.096	0.010212	0.00385609	0.0109158	20.6868	4.64881e-07
501206	95.7705	27.6326	99.6772	-16.0944	6.00048	0.022337	0.00218534	0.0114916	0.000883149	1	11	0.012091	0.000121302	5.2145e-05	0.0000000E+000	-100.064	0.00963917	0.00278119	0.0100324	16.0944	2.2657e-07
354810	102.501	22.6657	104.977	-12.469	7.78749	0.0225106	0.00232495	0.0197904	0.00092258	1	11	0.0284184	0.00027071	5.3935e-05	0.0000000E+000	-100.104	0.00930119	0.00205674	0.00952588	12.469	9.69843e-07
251188	106.431	17.9321	107.931	-9.56375	9.57548	0.022493	0.00213596	0.0353338	0.000975359	1	11	0.0525961	0.000487314	5.53555e-05	0.0000000E+000	-100.104	0.00913644	0.00153937	0.00926521	9.56375	7.86894e-07
177832	108.534	14.2516	109.465	-7.48071	11.3625	0.0225328	0.00221164	0.0627984	0.00106444	1	11	0.0853594	0.000779785	5.62479e-05	0.0000000E+000	-100.112	0.00905756	0.00118935	0.00913531	7.48071	-4.88078e-07
125909	109.624	11.8373	110.261	-6.16298	13.0145	0.0225689	0.00238834	0.106785	0.00123075	1	11	0.126021	0.00114293	5.81226e-05	0.0000000E+000	-100.12	0.00901698	0.000973664	0.0090694	6.16298	7.5078e-07
89129.3	110.217	10.6125	110.727	-5.4999	14.8015	0.0226767	0.00220251	0.168261	0.00154566	1	11	0.129656	0.00117096	5.45841e-05	0.0000000E+000	-100.104	0.00898968	0.000865593	0.00903126	5.4999	-1.75443e-06
63093.8	110.569	10.5143	111.068	-5.43204	16.5895	0.0227628	0.00225936	0.239913	0.00214997	1	11	0.129449	0.00116549	5.7502e-05	0.0000000E+000	-100.112	0.00896305	0.000852315	0.00900348	5.43204	1.32e-06
44666.7	110.831	11.5396	111.43	-5.94416	18.2405	0.0228074	0.00232777	0.308777	0.00331147	1	11	0.140057	0.0012569	5.69421e-05	0.0000000E+000	-100.12	0.00892597	0.000929362	0.00897422	5.94416	1.09999e-06
31621.1	111.102	13.8244	111.959	-7.09284	19.8905	0.0228501	0.00236765	0.364079	0.00555099	1	11	0.130096	0.001162	6.01122e-05	0.0000000E+000	-100.072	0.00886348	0.00110288	0.00893183	7.09284	2.57531e-06
22389	111.488	17.5829	112.866	-8.96237	21.4065	0.0228538	0.00232441	0.404292	0.00981183	1	11	0.135409	0.00119973	6.08295e-05	0.0000000E+000	-100.072	0.0087519	0.00138027	0.00886007	8.96237	1.45459e-06
15847.7	112.068	23.2317	114.451	-11.7115	22.9205	0.0228703	0.00226756	0.432288	0.0178114	1	11	0.133192	0.00116375	5.84351e-05	0.0000000E+000	-100.056	0.00855548	0.00177355	0.00873738	11.7115	-2.92467e-07
11217.7	113.012	31.3388	117.277	-15.499	24.2995	0.0228754	0.00237138	0.452724	0.0323277	1	11	0.140565	0.00119858	5.88014e-05	0.0000000E+000	-100.04	0.00821677	0.00227855	0.00852685	15.499	7.54952e-07
7944	114.476	42.6858	122.176	-20.4494	25.904	0.0228912	0.00243326	0.469351	0.057292	1	11	0.131389	0.00107541	5.83202e-05	0.0000000E+000	-100.12	0.00766912	0.00285965	0.00818492	20.4494	-5.26726e-07
5621.06	116.791	58.3963	130.576	-26.5654	27.8163	0.0229074	0.00238573	0.484861	0.0969746	1	11	0.13263	0.00101572	5.96928e-05	0.0000000E+000	-100.056	0.00684982	0.00342496	0.00765835	26.5654	3.51052e-07
3981.27	120.362	79.7825	144.403	-33.5385	30.0967	0.0229069	0.00231863	0.501061	0.152951	1	11	0.132644	0.000918567	5.92157e-05	0.0000000E+000	-100.08	0.00577213	0.00382608	0.00692505	33.5385	-9.10943e-08
2817.3	125.848	108.77	166.339	-40.8369	32.377	0.0229103	0.00231005	0.51937	0.222081	1	11	0.132071	0.000793987	5.92305e-05	0.0000000E+000	-100.08	0.00454839	0.00393118	0.00601182	40.8369	2.66344e-07
1995.64	133.947	147.558	199.286	-47.7681	34.6567	0.0229077	0.00235143	0.540476	0.296309	1	11	0.131373	0.000659216	6.15552e-05	0.0000000E+000	-100.056	0.0033727	0.00371541	0.0050179	47.7681	4.17375e-07
1411.84	145.591	199.479	246.959	-53.8759	36.9352	0.0229121	0.00234378	0.565116	0.368709	1	11	0.130778	0.000529555	6.33897e-05	0.0000000E+000	-100.064	0.00238718	0.00327076	0.00404925	53.8759	9.28212e-08
1000.32	161.715	268.337	313.3	-58.9245	39.2127	0.0229196	0.00244443	0.592925	0.434953	1	11	0.130364	0.000416099	6.52382e-05	0.0000000E+000	-100.056	0.00164752	0.00273376	0.00319183	58.9245	8.49413e-07
707.509	183.635	360.719	404.772	-63.0202	41.7454	0.0229101	0.000195869	0.623618	0.495264	1	12	0.133442	0.000329673	6.61392e-05	0.0000000E+000	-100.072	0.00112082	0.00220165	0.00247053	63.0202	1.30909e-07
501.444	212.865	483.302	528.102	-66.2295	44.0172	0.0229051	0.000179197	0.656718	0.550022	1	12	0.131796	0.000249564	6.64568e-05	0.0000000E+000	-100.064	0.000763252	0.00173294	0.00189357	66.2295	-8.7945e-08
354.66	252.035	648.45	695.708	-68.7602	46.2969	0.0229006	0.000167172	0.692041	0.601217	1	12	0.13086	0.000188095	6.68096e-05	0.0000000E+000	-100.056	0.000520724	0.00133975	0.00143738	68.7602	1.61152e-07
251.044	304.365	869.72	921.439	-70.7121	48.5659	0.022903	0.000179364	0.728938	0.649405	1	12	0.130349	0.000141462	6.67848e-05	0.0000000E+000	-100.064	0.000358477	0.00102434	0.00108526	70.7121	-5.08991e-08
177.781	374.675	1166.44	1225.14	-72.1923	50.8582	0.0229086	0.000186727	0.767487	0.695706	1	12	0.130073	0.000106169	6.66457e-05	0.0000000E+000	-100.064	0.000249622	0.000777126	0.000816233	72.1923	8.20197e-09
125.846	469.846	1565.29	1634.29	-73.2921	53.1334	0.0229141	0.000178915	0.807954	0.741175	1	12	0.12992	7.94963e-05	6.67851e-05	0.0000000E+000	-100.104	0.000175913	0.000586056	0.000611888	73.2921	1.4542e-08
89.116	598.748	2100.55	2184.22	-74.0902	55.4057	0.0229132	0.000195805	0.85022	0.786331	1	12	0.12984	5.94445e-05	6.68121e-05	0.0000000E+000	-100.08	0.000125502	0.000440292	0.00045783	74.0902	3.98399e-08
63.0823	776.908	2819.48	2924.56	-74.5945	57.9508	0.0229148	2.25533e-05	0.894835	0.831687	1	13	0.130236	4.45316e-05	6.68686e-05	0.0000000E+000	-100.08	9.08338e-05	0.000329646	0.000341931	74.5945	2.84314e-08
44.6712	1020.48	3779	3914.36	-74.8883	60.2152	0.0229118	2.05031e-05	0.942792	0.878714	1	13	0.13001	3.32136e-05	6.68631e-05	0.0000000E+000	-100.096	6.66013e-05	0.000246635	0.00025547	74.8883	1.94775e-08
31.6296	1355.9	5058.85	5237.41	-74.9959	62.4524	0.0229174	1.91422e-05	0.994661	0.927996	1	13	0.129889	2.48003e-05	6.68853e-05	0.0000000E+000	-100.088	4.94305e-05	0.000184425	0.000190934	74.9959	-5.30334e-09
22.3854	1814.36	6764.48	7003.58	-74.9856	64.7004	0.0229111	1.50234e-05	1.05104	0.980505	1	13	0.129819	1.8536e-05	6.68858e-05	0.0000000E+000	-100.064	3.69898e-05	0.00013791	0.000142784	74.9856	6.33095e-08
15.8576	2440.13	9023.39	9347.51	-74.8679	67.0289	0.022916	1.80182e-05	1.11228	1.03648	1	13	0.129783	1.38842e-05	6.68588e-05	0.0000000E+000	-100.072	2.79268e-05	0.000103271	0.00010698	74.8679	-4.03458e-08
11.2249	3292.63	12030.4	12472.9	-74.6935	69.4059	0.0229136	1.67769e-05	1.17858	1.09644	1	13	0.129765	1.04037e-05	6.69229e-05	0.0000000E+000	-100.056	2.11645e-05	7.73299e-05	8.01739e-05	74.6935	1.57379e-08
7.93953	4446.89	16026.3	16631.8	-74.492	71.9477	0.0229129	1.82156e-05	1.25081	1.16139	1	13	0.129756	7.80169e-06	6.68668e-05	0.0000000E+000	-100.072	1.6076e-05	5.79368e-05	6.01258e-05	74.492	-7.55468e-08
5.6205	6054.9	21303.8	22147.5	-74.1339	73.8126	0.0229136	2.56218e-05	1.32919	1.22985	1	13	0.129755	5.85869e-06	6.69469e-05	0.0000000E+000	-100.048	1.2344e-05	4.34316e-05	4.51517e-05	74.1339	4.71869e-08
3.97785	8311.07	28345.6	29538.9	-73.6586	76.6222	0.0229244	-1.8643e-05	1.41152	1.29978	1	14	0.12978	4.39352e-06	6.68921e-05	0.0000000E+000	-100.088	9.52509e-06	3.24861e-05	3.38537e-05	73.6586	-6.25831e-08
2.81836	11159.9	37517.4	39142	-73.4343	80.1217	0.022916	-2.5196e-06	1.50519	1.38283	1	14	0.129768	3.31532e-06	6.69025e-05	0.0000000E+000	-100.048	7.2841e-06	2.44876e-05	2.5548e-05	73.4343	-4.88281e-08
1.99706	15065.6	49488.2	51730.6	-73.0683	84.9837	0.0229221	-4.16176e-07	1.61038	1.47379	1	14	0.129762	2.50841e-06	6.68651e-05	0.0000000E+000	-100.112	5.62979e-06	1.8493e-05	1.93309e-05	73.0683	-1.01126e-07
1.41224	20378.5	65391.8	68493.6	-72.691	91.7902	0.0229314	2.3037e-06	1.72341	1.57085	1	14	0.129753	1.89438e-06	6.68815e-05	0.0000000E+000	-100.048	4.34382e-06	1.39387e-05	1.45999e-05	72.691	-4.04443e-08
1.00006	27559.5	85909.2	90221.5	-72.2139	101.335	0.0229319	2.78837e-06	1.85248	1.67962	1	14	0.129751	1.43814e-06	6.69857e-05	0.0000000E+000	-100.064	3.38572e-06	1.05541e-05	1.10838e-05	72.2139	1.2677e-07