File: data/DE_40_10_60.mpt
EC-Lab ASCII FILE
Nb header lines : 75

Potentio Electrochemical Impedance Spectroscopy

Run on channel : 2 (SN 20919)
User :
CE vs. WE compliance from -10 V to 10 V
Electrode connection : standard
Ewe ctrl range : min = -10.00 V, max = 10.00 V
Safety Limits :
	Do not start on E overload
Acquisition started on : 01/24/2020 09:53:32
Technique started on : 01/24/2020 09:53:33
Saved on :
	File : DE_40_10_60.mpr
	Directory : P:\Chemistry\Data\VMP3\Kyler\DOE\DE_40\2ND 60C\
	Host : 10.0.4.99
Device : VMP3 (SN 0183)
Address : USB
EC-Lab for windows v11.33 (software)
Internet server v11.32 (firmware)
Command interpretor v11.33 (firmware)
Electrode material :
Initial state :
Electrolyte :
Comments :
Electrode surface area : 0.001 cm²
Characteristic mass : 0.001 g
Equivalent Weight : 0.000 g/eq.
Density : 0.000 g/cm3
Record Analogic IN 1
Cycle Definition : Charge/Discharge alternance
External device configuration :
   device type : Thermostat
   device name : Other
   Analog OUT :
      mode : E/V
      unit : T/°C
      max : 400.000 at 5.000 V
      min : -100.000 at 0.000 V
      current : 0.000
   Analog IN 1 :
      unit : T/°C
      max : 400.000 at 5.000 V
      min : -100.000 at 0.000 V
Mode                Single sine
E (V)               0.0000
vs.                 Eoc
tE (h:m:s)          0:00:0.0000
record              0
dI                  1.000
unit dI             mA
dt (s)              0.000
fi                  1.000
unit fi             MHz
ff                  1.000
unit ff             Hz
Nd                  20
Points              per decade
spacing             Logarithmic
Va (mV)             128.0
pw                  0.50
Na                  3
corr                0
E range min (V)     -10.000
E range max (V)     10.000
I Range             Auto
Bandwidth           5
nc cycles           0
goto Ns'            0
nr cycles           0
inc. cycle          1

freq/Hz	Re(Z)/Ohm	-Im(Z)/Ohm	|Z|/Ohm	Phase(Z)/deg	time/s	<Ewe>/V	<I>/mA	Cs/µF	Cp/µF	cycle number	I Range	|Ewe|/V	|I|/A	(Q-Qo)/mA.h	Analog OUT/V	Analog IN 1/V	Re(Y)/Ohm-1	Im(Y)/Ohm-1	|Y|/Ohm-1	Phase(Y)/deg	dq/mA.h
1.00002e+06	72.0329	35.9192	80.4917	-26.5031	1.74648	0.0572574	0.00173626	0.00443084	0.000882339	1	11	0.00129389	1.60748e-05	3.11076e-07	0.0000000E+000	-100.094	0.011118	0.005544	0.0124236	26.5031	3.11076e-07
707950	82.7708	30.8463	88.3318	-20.4389	3.53248	0.0583203	0.00170671	0.00728812	0.000888763	1	11	0.00561133	6.35256e-05	9.02974e-07	0.0000000E+000	-100.11	0.0106082	0.00395338	0.011321	20.4389	1.75104e-07
501206	93.1204	27.056	96.9713	-16.2011	5.32147	0.0589462	0.00186803	0.0117366	0.000913651	1	11	0.015545	0.000160306	2.17467e-06	0.0000000E+000	-100.078	0.00990281	0.00287724	0.0103123	16.2011	3.33118e-07
354810	100.311	22.6644	102.84	-12.7316	7.10849	0.0591231	0.0018751	0.0197916	0.000961266	1	11	0.0319541	0.000310717	4.06094e-06	0.0000000E+000	-100.046	0.00948476	0.00214299	0.00972384	12.7316	5.15549e-07
251188	104.737	18.1787	106.303	-9.84646	8.89449	0.0590775	0.0017372	0.0348544	0.00101928	1	11	0.0558825	0.00052569	5.46815e-06	0.0000000E+000	-100.094	0.00926849	0.00160869	0.00940706	9.84646	1.00019e-06
177832	107.189	14.4474	108.159	-7.67631	10.6825	0.0590743	0.00156661	0.0619469	0.0011053	1	11	0.0882185	0.00081564	7.04693e-06	0.0000000E+000	-100.134	0.00916282	0.001235	0.00924568	7.67631	7.11625e-07
125909	108.512	11.8392	109.156	-6.22663	12.3345	0.0590962	0.00156345	0.106768	0.001256	1	11	0.128491	0.00117713	7.43932e-06	0.0000000E+000	-100.11	0.00910717	0.000993638	0.00916121	6.22663	-3.93406e-07
89129.3	109.223	10.3481	109.712	-5.4122	14.1215	0.0592295	0.00173703	0.172559	0.00153514	1	11	0.129634	0.00118158	4.97811e-06	0.0000000E+000	-100.062	0.0090741	0.000859706	0.00911474	5.4122	-1.17093e-06
63093.8	109.615	9.92164	110.063	-5.17193	15.9095	0.0592995	0.00178219	0.254244	0.002066	1	11	0.129405	0.00117573	8.30945e-06	0.0000000E+000	-100.11	0.00904868	0.000819025	0.00908567	5.17193	-5.06645e-07
44666.7	109.868	10.5544	110.374	-5.48721	17.5605	0.0593356	0.00184316	0.337601	0.00308698	1	11	0.140102	0.00126933	1.15642e-05	0.0000000E+000	-100.078	0.00901857	0.000866357	0.00906008	5.48721	4.99797e-07
31621.1	110.094	12.3365	110.783	-6.39355	19.2125	0.0593737	0.00178944	0.407993	0.00505927	1	11	0.130017	0.00117362	1.06639e-05	0.0000000E+000	-100.062	0.00897053	0.00100518	0.00902667	6.39355	-4.80707e-07
22389	110.385	15.4496	111.461	-7.96739	20.7275	0.0593903	0.00177216	0.460117	0.00884004	1	11	0.135449	0.00121522	1.04842e-05	0.0000000E+000	-100.11	0.00888513	0.00124357	0.00897173	7.96739	-2.24966e-07
15847.7	110.812	20.2363	112.644	-10.3493	22.2435	0.0593995	0.00182643	0.496275	0.0160165	1	11	0.133248	0.00118291	1.18689e-05	0.0000000E+000	-100.07	0.00873307	0.00159483	0.0088775	10.3493	-2.21394e-07
11217.7	111.499	27.1885	114.766	-13.7039	23.6225	0.0593996	0.00177829	0.521831	0.0292871	1	11	0.140707	0.00122604	1.28064e-05	0.0000000E+000	-100.126	0.00846535	0.00206424	0.0087134	13.7039	-3.842e-07
7944	112.57	37.0077	118.497	-18.1984	25.228	0.0594224	0.00192455	0.541364	0.0528026	1	11	0.131489	0.00110964	1.53876e-05	0.0000000E+000	-100.118	0.0080169	0.00263557	0.00843901	18.1984	2.58669e-07
5621.06	114.253	50.7083	125	-23.9329	27.1403	0.0594508	0.00186266	0.558371	0.0918884	1	11	0.132966	0.00106373	1.6823e-05	0.0000000E+000	-100.038	0.00731216	0.00324533	0.00799999	23.9329	9.71296e-07
3981.27	116.865	69.5052	135.972	-30.7419	29.4207	0.0594435	0.00179334	0.575149	0.150285	1	11	0.133192	0.000979552	1.80437e-05	0.0000000E+000	-100.046	0.00632098	0.00375938	0.00735444	30.7419	-3.20105e-07
2817.3	120.967	95.2315	153.955	-38.2116	31.7009	0.0594525	0.00186192	0.593208	0.226977	1	11	0.132772	0.000862406	1.77139e-05	0.0000000E+000	-100.078	0.00510365	0.00401785	0.00649541	38.2116	-3.24044e-07
1995.64	127.178	129.97	181.842	-45.6221	33.9807	0.0594505	0.0018463	0.613612	0.313468	1	11	0.13213	0.000726621	1.88357e-05	0.0000000E+000	-100.062	0.00384613	0.00393056	0.00549927	45.6221	-2.16996e-07
1411.84	136.383	176.922	223.387	-52.3727	36.2622	0.0594599	0.00186042	0.637167	0.39967	1	11	0.131528	0.000588791	2.11535e-05	0.0000000E+000	-100.07	0.00273303	0.00354541	0.00447654	52.3727	7.37859e-07
1000.32	149.514	239.619	282.438	-58.0372	38.5397	0.0594656	0.00201486	0.663989	0.477919	1	11	0.131084	0.000464117	2.29411e-05	0.0000000E+000	-100.062	0.00187428	0.00300381	0.0035406	58.0372	8.10949e-07
707.509	167.891	324.131	365.032	-62.6171	41.0715	0.0594527	0.000192586	0.694012	0.5472	1	12	0.134502	0.000368467	2.32008e-05	0.0000000E+000	-100.078	0.00125999	0.00243253	0.00273948	62.6171	-2.46226e-07
501.444	193.247	436.567	477.426	-66.1234	43.3432	0.0594547	0.000194561	0.72702	0.607907	1	12	0.13267	0.000277886	2.28942e-05	0.0000000E+000	-100.134	0.000847814	0.00191531	0.00209457	66.1234	5.53538e-08
354.66	228.272	588.087	630.836	-68.7858	45.6229	0.0594558	0.00015698	0.763075	0.663158	1	12	0.131632	0.000208663	2.28986e-05	0.0000000E+000	-100.086	0.000573613	0.00147778	0.0015852	68.7858	-8.70563e-08
251.044	276.092	790.907	837.712	-70.7568	47.8919	0.0594558	0.00017311	0.801575	0.714506	1	12	0.131064	0.000156454	2.30155e-05	0.0000000E+000	-100.062	0.000393428	0.00112703	0.00119373	70.7568	2.56793e-08
177.781	341.552	1061.93	1115.5	-72.1704	50.1842	0.0594589	0.000172064	0.843024	0.76399	1	12	0.130756	0.000117217	2.34101e-05	0.0000000E+000	-100.078	0.000274484	0.000853402	0.000896457	72.1704	1.34463e-07
125.846	431.808	1424.2	1488.22	-73.133	52.4594	0.0594608	0.000171206	0.887996	0.813238	1	12	0.130594	8.77516e-05	2.34755e-05	0.0000000E+000	-100.07	0.000194965	0.000643037	0.000671943	73.133	1.55676e-08
89.116	555.111	1907.31	1986.45	-73.7727	54.7317	0.059461	0.000160762	0.936361	0.863239	1	12	0.130501	6.56958e-05	2.36633e-05	0.0000000E+000	-100.07	0.000140678	0.000483355	0.000503411	73.7727	7.40524e-08
63.0823	722.009	2552.24	2652.4	-74.2042	57.2848	0.0594626	1.56005e-05	0.988531	0.915283	1	13	0.130933	4.93639e-05	2.37476e-05	0.0000000E+000	-100.094	0.000102627	0.00036278	0.000377017	74.2042	4.6052e-08
44.6712	946.065	3408.63	3537.49	-74.488	59.5492	0.05946	1.36501e-05	1.04523	0.970471	1	13	0.130687	3.69434e-05	2.38025e-05	0.0000000E+000	-100.054	7.56017e-05	0.00027239	0.000282687	74.488	1.45338e-08
31.6296	1246.03	4548.24	4715.83	-74.6792	61.7864	0.0594639	9.37099e-06	1.10633	1.02909	1	13	0.13055	2.76834e-05	2.38527e-05	0.0000000E+000	-99.9896	5.6029e-05	0.000204516	0.000212052	74.6792	2.88046e-08
22.3854	1646.03	6068.5	6287.78	-74.8241	64.0344	0.0594619	9.80139e-06	1.17159	1.0913	1	13	0.130483	2.07519e-05	2.38317e-05	0.0000000E+000	-100.094	4.16336e-05	0.000153493	0.000159039	74.8241	2.82269e-08
15.8576	2174.17	8089.13	8376.22	-74.9557	66.3619	0.0594662	1.3767e-05	1.24074	1.15715	1	13	0.130443	1.5573e-05	2.38532e-05	0.0000000E+000	-100.094	3.09883e-05	0.000115294	0.000119386	74.9557	4.17098e-08
11.2249	2876.76	10794.2	11171	-75.077	68.7389	0.0594629	9.82911e-06	1.31356	1.22645	1	13	0.130423	1.16752e-05	2.39011e-05	0.0000000E+000	-100.11	2.30527e-05	8.64985e-05	8.95177e-05	75.077	7.68221e-08
7.93953	3805.8	14412.2	14906.2	-75.2077	71.2827	0.0594734	1.48631e-05	1.3909	1.30023	1	13	0.130412	8.74886e-06	2.3836e-05	0.0000000E+000	-100.102	1.71282e-05	6.48627e-05	6.70861e-05	75.2077	-4.56994e-08
5.6205	5072.72	19284.8	19940.8	-75.2626	73.1477	0.0594747	1.64254e-05	1.46835	1.37333	1	13	0.130411	6.5399e-06	2.38278e-05	0.0000000E+000	-100.078	1.27572e-05	4.84987e-05	5.01485e-05	75.2626	1.53732e-08
3.97785	6703.87	25918.2	26771.2	-75.498	75.9842	0.0594795	-2.40896e-05	1.54371	1.44691	1	14	0.130439	4.87238e-06	2.3896e-05	0.0000000E+000	-100.062	9.35386e-06	3.61635e-05	3.73536e-05	75.498	-3.44212e-08
2.81836	8840.45	34464.6	35580.4	-75.6134	79.4827	0.0594798	-3.85593e-06	1.63851	1.53736	1	14	0.130416	3.6654e-06	2.39008e-05	0.0000000E+000	-100.054	6.98316e-06	2.7224e-05	2.81054e-05	75.6134	4.73563e-08
1.99706	11870.2	46099.1	47602.8	-75.5604	84.3447	0.0594827	-5.54813e-06	1.72877	1.62127	1	14	0.130413	2.7396e-06	2.38555e-05	0.0000000E+000	-100.062	5.23831e-06	2.03436e-05	2.10072e-05	75.5604	-3.16624e-08
1.41224	15904.5	61584.6	63605.2	-75.5195	91.1502	0.0594847	6.59257e-07	1.82995	1.71553	1	14	0.130407	2.05025e-06	2.37875e-05	0.0000000E+000	-100.07	3.9313e-06	1.52226e-05	1.5722e-05	75.5195	-1.2246e-07
1.00006	21484	82395.1	85149.9	-75.3859	100.696	0.0594867	2.00552e-06	1.93148	1.80853	1	14	0.130403	1.53145e-06	2.38822e-05	0.0000000E+000	-100.054	2.9631e-06	1.1364e-05	1.1744e-05	75.3859	7.52037e-08