File: data/DE_40_1_30.mpt
EC-Lab ASCII FILE
Nb header lines : 75

Potentio Electrochemical Impedance Spectroscopy

Run on channel : 1 (SN 20909)
User :
CE vs. WE compliance from -10 V to 10 V
Electrode connection : standard
Ewe ctrl range : min = -10.00 V, max = 10.00 V
Safety Limits :
	Do not start on E overload
Acquisition started on : 01/23/2020 15:13:44
Technique started on : 01/23/2020 15:13:45
Saved on :
	File : DE_40_1_30.mpr
	Directory : P:\Chemistry\Data\VMP3\Kyler\DOE\DE_40\2ND 30C\
	Host : 10.0.4.99
Device : VMP3 (SN 0183)
Address : USB
EC-Lab for windows v11.33 (software)
Internet server v11.32 (firmware)
Command interpretor v11.33 (firmware)
Electrode material :
Initial state :
Electrolyte :
Comments :
Electrode surface area : 0.001 cm²
Characteristic mass : 0.001 g
Equivalent Weight : 0.000 g/eq.
Density : 0.000 g/cm3
Record Analogic IN 1
Cycle Definition : Charge/Discharge alternance
External device configuration :
   device type : Thermostat
   device name : Other
   Analog OUT :
      mode : E/V
      unit : T/°C
      max : 400.000 at 5.000 V
      min : -100.000 at 0.000 V
      current : 0.000
   Analog IN 1 :
      unit : T/°C
      max : 400.000 at 5.000 V
      min : -100.000 at 0.000 V
Mode                Single sine
E (V)               0.0000
vs.                 Eoc
tE (h:m:s)          0:00:0.0000
record              0
dI                  1.000
unit dI             mA
dt (s)              0.000
fi                  1.000
unit fi             MHz
ff                  1.000
unit ff             Hz
Nd                  20
Points              per decade
spacing             Logarithmic
Va (mV)             128.0
pw                  0.50
Na                  3
corr                0
E range min (V)     -10.000
E range max (V)     10.000
I Range             Auto
Bandwidth           5
nc cycles           0
goto Ns'            0
nr cycles           0
inc. cycle          1

freq/Hz	Re(Z)/Ohm	-Im(Z)/Ohm	|Z|/Ohm	Phase(Z)/deg	time/s	<Ewe>/V	<I>/mA	Cs/µF	Cp/µF	cycle number	I Range	|Ewe|/V	|I|/A	(Q-Qo)/mA.h	Analog OUT/V	Analog IN 1/V	Re(Y)/Ohm-1	Im(Y)/Ohm-1	|Y|/Ohm-1	Phase(Y)/deg	dq/mA.h
1.00002e+06	54.0484	150.669	160.07	-70.2659	1.95249	0.143328	0.00293415	0.0010563	0.000935874	1	11	0.0045951	2.87069e-05	6.66746e-07	0.0000000E+000	-100.078	0.00210943	0.00588038	0.00624728	70.2659	6.66746e-07
891247	63.9893	159.153	171.535	-68.0968	2.54749	0.143855	0.00296215	0.00112204	0.000965899	1	11	0.00720812	4.20213e-05	1.1925e-06	0.0000000E+000	-100.11	0.00217472	0.00540891	0.00582972	68.0968	5.25757e-07
794333	74.2585	169.973	185.487	-66.4003	3.14349	0.14428	0.00287704	0.00117879	0.00098986	1	11	0.0109476	5.9021e-05	1.66316e-06	0.0000000E+000	-100.086	0.00215835	0.00494033	0.00539123	66.4003	4.70656e-07
707950	84.5472	182.142	200.808	-65.1001	3.7385	0.144718	0.00288414	0.00123426	0.00101546	1	11	0.0159163	7.92612e-05	2.10656e-06	0.0000000E+000	-100.094	0.0020967	0.00451697	0.00497988	65.1001	4.43397e-07
630957	94.7027	195.641	217.357	-64.17	4.33448	0.145094	0.00291344	0.00128932	0.00104456	1	11	0.0221238	0.000101786	2.64788e-06	0.0000000E+000	-100.07	0.00200455	0.00414108	0.00460074	64.17	5.41322e-07
562342	105.402	210.748	235.636	-63.4289	4.92949	0.14546	0.00301067	0.00134294	0.00107424	1	11	0.0295327	0.000125332	3.19408e-06	0.0000000E+000	-100.07	0.0018983	0.0037956	0.00424383	63.4289	5.46205e-07
501206	116.393	227.02	255.118	-62.8557	5.52649	0.145743	0.00298119	0.00139875	0.0011076	1	11	0.0380549	0.000149166	3.86771e-06	0.0000000E+000	-100.086	0.00178832	0.00348803	0.00391975	62.8557	6.73632e-07
446686	128.024	244.765	276.224	-62.3883	6.12149	0.145998	0.00297503	0.00145569	0.00114299	1	11	0.0476209	0.0001724	4.20787e-06	0.0000000E+000	-100.07	0.0016779	0.00320793	0.00362025	62.3883	3.4015e-07
398103	140.209	263.93	298.861	-62.0213	6.71648	0.146137	0.00293789	0.00151473	0.00118134	1	11	0.0582188	0.000194802	4.95526e-06	0.0000000E+000	-100.046	0.00156977	0.00295496	0.00334604	62.0213	7.47399e-07
354810	153.114	284.287	322.898	-61.6935	7.31249	0.14626	0.00290654	0.00157786	0.00122307	1	11	0.0698562	0.000216342	5.65195e-06	0.0000000E+000	-100.07	0.00146854	0.00272663	0.00309695	61.6935	6.96685e-07
316230	167.042	306.667	349.21	-61.4228	7.90849	0.146341	0.00295991	0.00164116	0.00126564	1	11	0.0826624	0.000236713	6.00597e-06	0.0000000E+000	-100.062	0.00136979	0.00251475	0.00286361	61.4228	3.54019e-07
281835	181.997	330.896	377.644	-61.1886	8.50448	0.146369	0.00297037	0.00170661	0.00131024	1	11	0.0966333	0.000255885	6.97244e-06	0.0000000E+000	-100.118	0.00127615	0.0023202	0.002648	61.1886	9.66474e-07
251188	198.26	356.943	408.307	-60.9505	9.09949	0.146416	0.00292613	0.0017751	0.00135658	1	11	0.111819	0.00027386	7.46096e-06	0.0000000E+000	-100.07	0.00118921	0.00214104	0.00244914	60.9505	4.88513e-07
223872	215.893	385.421	441.768	-60.7447	9.5585	0.146481	0.00288022	0.00184453	0.001404	1	11	0.128213	0.000290228	8.05293e-06	0.0000000E+000	-100.054	0.00110624	0.00197491	0.00226363	60.7447	5.91974e-07
199544	235.139	416.148	477.984	-60.532	10.1555	0.146541	0.00287369	0.00191662	0.00145279	1	11	0.128808	0.000269482	8.80011e-06	0.0000000E+000	-100.07	0.00102919	0.00182146	0.00209212	60.532	7.4718e-07
177832	256.33	449.746	517.664	-60.3193	10.7505	0.146573	0.00284215	0.00198996	0.00150204	1	11	0.129637	0.000250426	9.0333e-06	0.0000000E+000	-100.054	0.000956538	0.0016783	0.00193175	60.3193	2.33192e-07
158486	300.396	489.529	574.349	-58.4649	11.6495	0.146445	0.00113913	0.0020514	0.00149024	1	12	0.0806077	0.000140346	8.84103e-06	0.0000000E+000	-100.094	0.000910633	0.00148398	0.0017411	58.4649	-1.92272e-07
141256	326.865	528.782	621.652	-58.2779	12.2445	0.146468	0.00115833	0.00213077	0.00154169	1	12	0.0968123	0.000155734	8.86293e-06	0.0000000E+000	-100.094	0.000845812	0.0013683	0.00160862	58.2779	2.18956e-08
125909	356.66	571.139	673.354	-58.0164	12.7055	0.146476	0.00114822	0.0022132	0.00159227	1	12	0.116057	0.000172356	8.86371e-06	0.0000000E+000	-100.07	0.000786624	0.00125966	0.0014851	58.0164	7.87801e-10
112205	390.144	616.579	729.645	-57.6761	13.1655	0.146462	0.00112946	0.00230049	0.00164276	1	12	0.138797	0.000190225	8.84255e-06	0.0000000E+000	-100.038	0.000732828	0.00115815	0.00137053	57.6761	-2.116e-08
100004	428.361	665.179	791.174	-57.2193	13.7605	0.146579	0.00112263	0.00239258	0.00169121	1	12	0.131518	0.000166232	9.07997e-06	0.0000000E+000	-100.102	0.000684331	0.00106266	1.