File: data/DE_40_12_60.mpt
EC-Lab ASCII FILE
Nb header lines : 75

Potentio Electrochemical Impedance Spectroscopy

Run on channel : 4 (SN 4192)
User :
CE vs. WE compliance from -10 V to 10 V
Electrode connection : standard
Ewe ctrl range : min = -10.00 V, max = 10.00 V
Safety Limits :
	Do not start on E overload
Acquisition started on : 01/24/2020 09:53:01
Technique started on : 01/24/2020 09:53:02
Saved on :
	File : DE_40_12_60.mpr
	Directory : P:\Chemistry\Data\VMP3\Kyler\DOE\DE_40\2ND 60C\
	Host : 10.0.4.99
Device : VMP3 (SN 0183)
Address : USB
EC-Lab for windows v11.33 (software)
Internet server v11.32 (firmware)
Command interpretor v11.33 (firmware)
Electrode material :
Initial state :
Electrolyte :
Comments :
Electrode surface area : 0.001 cm²
Characteristic mass : 0.001 g
Equivalent Weight : 0.000 g/eq.
Density : 0.000 g/cm3
Record Analogic IN 1
Cycle Definition : Charge/Discharge alternance
External device configuration :
   device type : Thermostat
   device name : Other
   Analog OUT :
      mode : E/V
      unit : T/°C
      max : 400.000 at 5.000 V
      min : -100.000 at 0.000 V
      current : 0.000
   Analog IN 1 :
      unit : T/°C
      max : 400.000 at 5.000 V
      min : -100.000 at 0.000 V
Mode                Single sine
E (V)               0.0000
vs.                 Eoc
tE (h:m:s)          0:00:0.0000
record              0
dI                  1.000
unit dI             mA
dt (s)              0.000
fi                  1.000
unit fi             MHz
ff                  1.000
unit ff             Hz
Nd                  20
Points              per decade
spacing             Logarithmic
Va (mV)             128.0
pw                  0.50
Na                  3
corr                0
E range min (V)     -10.000
E range max (V)     10.000
I Range             Auto
Bandwidth           5
nc cycles           0
goto Ns'            0
nr cycles           0
inc. cycle          1

freq/Hz	Re(Z)/Ohm	-Im(Z)/Ohm	|Z|/Ohm	Phase(Z)/deg	time/s	<Ewe>/V	<I>/mA	Cs/µF	Cp/µF	cycle number	I Range	|Ewe|/V	|I|/A	(Q-Qo)/mA.h	Analog OUT/V	Analog IN 1/V	Re(Y)/Ohm-1	Im(Y)/Ohm-1	|Y|/Ohm-1	Phase(Y)/deg	dq/mA.h
1.00002e+06	54.0759	18.3053	57.0901	-18.7015	1.64548	-0.0131357	0.00134103	0.00869433	0.000893853	1	11	0.000454222	7.95624e-06	3.94607e-07	0.0000000E+000	-100.129	0.0165913	0.00561635	0.0175162	18.7015	3.94607e-07
707950	-20.7919	-8.93517	22.6305	156.745	3.6326	-0.0124736	0.268932	-0.0251602	-0.00392221	1	9	2.24354e-05	9.9138e-07	2.67025e-05	0.0000000E+000	-100.105	-0.040598	-0.0174467	0.0441881	-156.745	2.56102e-05
501206	64.965	10.6698	65.8354	-9.32698	6.00247	-0.0122073	0.00307117	0.0297609	0.000781705	1	11	0.00473371	7.19022e-05	5.51807e-05	0.0000000E+000	-100.097	0.0149886	0.00246172	0.0151894	9.32698	3.01657e-07
354810	68.3212	8.77983	68.883	-7.32284	7.79049	-0.0119749	0.0029342	0.0510903	0.000830015	1	11	0.0161714	0.000234767	5.74481e-05	0.0000000E+000	-100.089	0.014399	0.00185038	0.0145174	7.32284	8.29416e-07
251188	69.6549	6.94688	70.0005	-5.69543	9.57747	-0.0119591	0.00309463	0.0912078	0.000898275	1	11	0.0349643	0.000499487	5.87567e-05	0.0000000E+000	-100.121	0.0142151	0.00141771	0.0142856	5.69543	-1.39875e-08
177832	70.2814	5.61864	70.5057	-4.57078	11.3665	-0.0119707	0.00318361	0.159287	0.00101156	1	11	0.0616072	0.000873791	6.01012e-05	0.0000000E+000	-100.097	0.0141382	0.00113027	0.0141833	4.57078	-8.03768e-07
125909	70.6422	4.83618	70.8075	-3.91637	13.1545	-0.0119748	0.00340919	0.261373	0.00121929	1	11	0.0949616	0.00134112	6.51714e-05	0.0000000E+000	-100.105	0.0140898	0.000964592	0.0141228	3.91637	3.01666e-06
89129.3	70.8048	4.54649	70.9506	-3.67401	14.6685	-0.0119613	0.00291432	0.392757	0.00161274	1	11	0.13655	0.00192458	6.96162e-05	0.0000000E+000	-100.113	0.0140653	0.000903158	0.0140943	3.67401	-4.73045e-07
63093.8	70.9076	4.72397	71.0648	-3.8115	16.4535	-0.011902	0.00326143	0.533981	0.00235956	1	11	0.129623	0.00182401	6.79705e-05	0.0000000E+000	-100.129	0.0140405	0.000935403	0.0140717	3.8115	3.19673e-06
44666.7	70.9888	5.39827	71.1937	-4.34863	18.2385	-0.0118855	0.00340623	0.660057	0.00379496	1	11	0.1294	0.00181757	7.30546e-05	0.0000000E+000	-100.129	0.0140057	0.00106505	0.0140462	4.34863	-1.04764e-06
31621.1	71.0708	6.66609	71.3828	-5.35838	19.8885	-0.0118938	0.00334779	0.755042	0.00658457	1	11	0.130284	0.00182515	7.71491e-05	0.0000000E+000	-100.089	0.0139478	0.00130823	0.014009	5.35838	2.00916e-06
22389	71.2213	8.64379	71.7439	-6.91987	21.4055	-0.0118784	0.00334704	0.822395	0.0119376	1	11	0.13775	0.00192002	7.66664e-05	0.0000000E+000	-100.064	0.0138369	0.00167932	0.0139385	6.91987	1.61597e-06
15847.7	71.4762	11.5526	72.4038	-9.18126	22.9215	-0.011862	0.00340251	0.869308	0.0221316	1	11	0.14064	0.00194243	8.5342e-05	0.0000000E+000	-100.056	0.0136345	0.00220373	0.0138114	9.18126	2.26417e-06
11217.7	71.871	15.6789	73.5614	-12.3065	24.4355	-0.0118698	0.00335188	0.9049	0.0411085	1	11	0.136148	0.00185081	8.57444e-05	0.0000000E+000	-100.016	0.0132817	0.00289745	0.0135941	12.3065	-4.53431e-07
7944	72.5265	21.4341	75.6275	-16.4642	26.058	-0.011811	0.00413692	0.934708	0.0750804	1	11	0.129484	0.00171213	8.89445e-05	0.0000000E+000	-100.073	0.0126805	0.00374753	0.0132227	16.4642	4.00548e-06
5621.06	73.5218	29.3685	79.1705	-21.7744	27.9693	-0.0117811	0.00395192	0.964095	0.132665	1	11	0.131912	0.00166617	9.02807e-05	0.0000000E+000	-100.048	0.0117298	0.0046855	0.012631	21.7744	-2.13881e-07
3981.27	75.0084	40.1928	85.0983	-28.1843	30.2497	-0.0117532	0.00418903	0.994604	0.221873	1	11	0.132509	0.00155713	9.52068e-05	0.0000000E+000	-100.161	0.0103578	0.00555017	0.0117511	28.1843	2.08817e-06
2817.3	77.1521	54.9248	94.7057	-35.4472	32.5289	-0.0117761	0.00407121	1.02854	0.345942	1	11	0.132108	0.00139493	0.000101064	0.0000000E+000	-100.137	0.00860191	0.00612373	0.010559	35.4472	2.01003e-06
1995.64	80.1187	74.834	109.632	-43.0467	34.8087	-0.0117985	0.00375294	1.06571	0.496551	1	11	0.13129	0.00119755	0.00010379	0.0000000E+000	-100.113	0.00666593	0.00622624	0.00912144	43.0467	1.5548e-06
1411.84	84.0848	101.951	132.152	-50.4856	37.0902	-0.0117829	0.00406915	1.10572	0.658077	1	11	0.130454	0.000987149	0.000104285	0.0000000E+000	-100.073	0.0048147	0.0058377	0.00756704	50.4856	1.98638e-07
1000.32	89.2379	138.886	165.084	-57.2783	39.3677	-0.0117771	0.00394873	1.14557	0.810829	1	11	0.129789	0.000786195	0.000105784	0.0000000E+000	-100.016	0.00327444	0.00509622	0.00605751	57.2783	1.3358e-07
707.509	95.6793	189.62	212.392	-63.2252	41.6484	-0.0117882	0.00412348	1.18632	0.945575	1	11	0.129325	0.000608896	0.000107677	0.0000000E+000	-100.073	0.002121	0.00420347	0.00470827	63.2252	3.30341e-07
501.444	103.654	258.953	278.928	-68.1846	43.9192	-0.0117872	0.00393494	1.22568	1.05642	1	11	0.129037	0.000462617	0.000110115	0.0000000E+000	-100.064	0.00133231	0.00332841	0.00358516	68.1846	1.02357e-06
354.66	113.865	355.772	373.549	-72.2527	46.4489	-0.0117941	0.000398272	1.26135	1.14416	1	12	0.130702	0.000349892	0.000110883	0.0000000E+000	-100.073	0.000816008	0.00254963	0.00267703	72.2527	2.57056e-07
251.044	126.716	489.323	505.464	-75.4816	48.7179	-0.0117954	0.00040313	1.29561	1.21419	1	12	0.129747	0.000256688	0.000110726	0.0000000E+000	-100.073	0.000495963	0.0019152	0.00197838	75.4816	-1.84884e-07
177.781	143.263	674.511	689.557	-78.0089	51.0102	-0.0118026	0.000394672	1.32723	1.26994	1	12	0.129234	0.000187416	0.000110671	0.0000000E+000	-100.081	0.000301295	0.00141856	0.00145021	78.0089	1.31605e-07
125.846	165.079	932.209	946.712	-79.958	53.2854	-0.0117919	0.000416689	1.35665	1.3154	1	12	0.128962	0.00013622	0.000110903	0.0000000E+000	-100.073	0.000184185	0.0010401	0.00105629	79.958	-7.975e-09
89.116	194.005	1289.44	1303.95	-81.4436	55.5577	-0.0117887	0.00040987	1.38504	1.35438	1	12	0.128817	9.87897e-05	0.000111039	0.0000000E+000	-100.097	0.000114101	0.000758363	0.000766898	81.4436	1.32114e-07
63.0823	234.248	1789.76	1805.02	-82.5434	57.8538	-0.0118026	0.000408565	1.40967	1.38593	1	12	0.128741	7.13235e-05	0.000111261	0.0000000E+000	-100.161	7.1897e-05	0.000549324	0.000554009	82.5434	7.72466e-08
44.6712	289.89	2479.73	2496.62	-83.3322	60.1192	-0.0117982	0.000398357	1.43677	1.4174	1	12	0.128706	5.1552e-05	0.000111604	0.0000000E+000	-100.056	4.6508e-05	0.000397832	0.000400541	83.3322	7.63822e-08
31.6296	372.151	3449.02	3469.04	-83.8416	62.6084	-0.0117998	4.27439e-05	1.45892	1.44213	1	13	0.128866	3.71475e-05	0.000111734	0.0000000E+000	-100.056	3.09243e-05	0.000286601	0.000288264	83.8416	4.57586e-08
22.3854	493.205	4791.59	4816.91	-84.1232	64.8554	-0.0118025	3.827e-05	1.4838	1.46825	1	13	0.128766	2.67321e-05	0.000111759	0.0000000E+000	-100.089	2.12565e-05	0.000206511	0.000207602	84.1232	-4.57951e-08
15.8576	674.304	6648.18	6682.29	-84.2085	67.184	-0.0117849	4.36671e-05	1.50966	1.49429	1	13	0.128717	1.92624e-05	0.000111855	0.0000000E+000	-100.105	1.5101e-05	0.000148885	0.000149649	84.2085	1.10668e-07
11.2249	949.203	9225.21	9273.91	-84.1254	69.5609	-0.0117979	4.43896e-05	1.53696	1.52086	1	13	0.128696	1.38772e-05	0.00011185	0.0000000E+000	-100.064	1.10366e-05	0.000107263	0.000107829	84.1254	6.78806e-08
7.93953	1370.72	12788.6	12861.8	-83.8822	72.1027	-0.0117974	3.96393e-05	1.56749	1.54968	1	13	0.128683	1.0005e-05	0.000111892	0.0000000E+000	-100.121	8.28599e-06	7.73068e-05	7.77496e-05	83.8822	5.94015e-08
5.6205	2004.09	17735.5	17848.4	-83.553	73.9677	-0.0118005	4.05044e-05	1.59662	1.57649	1	13	0.128677	7.20946e-06	0.00011182	0.0000000E+000	-100.056	6.29102e-06	5.56732e-05	5.60275e-05	83.553	-2.71848e-08
3.97785	3051.5	24499.9	24689.2	-82.9003	76.5032	-0.011796	2.84878e-05	1.63308	1.60813	1	13	0.128674	5.21175e-06	0.000111937	0.0000000E+000	-100.056	5.00608e-06	4.01929e-05	4.05035e-05	82.9003	-5.35338e-09
2.81836	4592.32	33613.9	33926.1	-82.2204	80.3316	-0.0117913	7.92744e-06	1.67998	1.6492	1	14	0.128686	3.79312e-06	0.000111977	0.0000000E+000	-100.056	3.98992e-06	2.92045e-05	2.94758e-05	82.2204	1.02331e-07
1.99706	6929.53	46190.5	46707.4	-81.4681	85.1957	-0.0117939	-2.57487e-06	1.72535	1.68737	1	14	0.128678	2.75499e-06	0.000111976	0.0000000E+000	-100.097	3.17638e-06	2.1173e-05	2.14099e-05	81.4681	6.9348e-08
1.41224	10895.4	62959.6	63895.4	-80.182	92.0021	-0.0117823	2.55401e-07	1.78999	1.73794	1	14	0.128674	2.01383e-06	0.000111897	0.0000000E+000	-100.073	2.66873e-06	1.54214e-05	1.56506e-05	80.182	-9.09272e-08
1.00006	16439.2	85510.2	87076	-79.1178	101.546	-0.0117816	5.78334e-06	1.86112	1.79479	1	14	0.128673	1.47771e-06	0.000111923	0.0000000E+000	-100.137	2.16811e-06	1.12777e-05	1.14842e-05	79.1178	-2.29767e-08