File: data/DE_49_4_30.mpt
EC-Lab ASCII FILE
Nb header lines : 75

Potentio Electrochemical Impedance Spectroscopy

Run on channel : 4 (SN 4192)
User :
CE vs. WE compliance from -10 V to 10 V
Electrode connection : standard
Ewe ctrl range : min = -10.00 V, max = 10.00 V
Safety Limits :
	Do not start on E overload
Acquisition started on : 01/22/2020 09:34:55
Technique started on : 01/22/2020 09:34:56
Saved on :
	File : DE_49_4_30.mpr
	Directory : P:\Chemistry\Data\VMP3\Kyler\DOE\DE_49\30C\
	Host : 10.0.4.99
Device : VMP3 (SN 0183)
Address : USB
EC-Lab for windows v11.33 (software)
Internet server v11.32 (firmware)
Command interpretor v11.33 (firmware)
Electrode material :
Initial state :
Electrolyte :
Comments :
Electrode surface area : 0.001 cm²
Characteristic mass : 0.001 g
Equivalent Weight : 0.000 g/eq.
Density : 0.000 g/cm3
Record Analogic IN 1
Cycle Definition : Charge/Discharge alternance
External device configuration :
   device type : Thermostat
   device name : Other
   Analog OUT :
      mode : E/V
      unit : T/°C
      max : 400.000 at 5.000 V
      min : -100.000 at 0.000 V
      current : 0.000
   Analog IN 1 :
      unit : T/°C
      max : 400.000 at 5.000 V
      min : -100.000 at 0.000 V
Mode                Single sine
E (V)               0.0000
vs.                 Eoc
tE (h:m:s)          0:00:0.0000
record              0
dI                  1.000
unit dI             mA
dt (s)              0.000
fi                  1.000
unit fi             MHz
ff                  1.000
unit ff             Hz
Nd                  20
Points              per decade
spacing             Logarithmic
Va (mV)             128.0
pw                  0.50
Na                  3
corr                0
E range min (V)     -10.000
E range max (V)     10.000
I Range             Auto
Bandwidth           5
nc cycles           0
goto Ns'            0
nr cycles           0
inc. cycle          1

freq/Hz	Re(Z)/Ohm	-Im(Z)/Ohm	|Z|/Ohm	Phase(Z)/deg	time/s	<Ewe>/V	<I>/mA	Cs/µF	Cp/µF	cycle number	I Range	|Ewe|/V	|I|/A	(Q-Qo)/mA.h	Analog OUT/V	Analog IN 1/V	Re(Y)/Ohm-1	Im(Y)/Ohm-1	|Y|/Ohm-1	Phase(Y)/deg	dq/mA.h
1.00002e+06	0.331937	-2.89949	2.91843	83.4691	1.80249	-0.00258839	-0.0135572	-0.0548897	-0.0541796	1	9	0.000126001	4.31744e-05	-2.37672e-05	0.0000000E+000	-100.145	0.0389724	-0.340427	0.34265	-83.4691	-2.37672e-05
794333	1.16463	-4.32397	4.47806	74.9255	2.99248	-0.00215348	0.0469576	-0.0463378	-0.0432035	1	9	0.00015075	3.3664e-05	-1.02969e-05	0.0000000E+000	-100.113	0.0580776	-0.215626	0.223311	-74.9255	8.90988e-06
630957	3.14412	-4.42714	5.43002	54.618	3.91749	-0.00186414	0.0777926	-0.0569766	-0.0378741	1	9	0.000199817	3.67987e-05	1.30434e-05	0.0000000E+000	-100.185	0.106634	-0.150149	0.184162	-54.618	1.98513e-05
501206	7.22384	-3.69221	8.11273	27.0723	5.41348	-0.0014898	-0.174859	-0.0860036	-0.0178138	1	10	0.0011563	0.000142529	-3.35272e-05	0.0000000E+000	-100.105	0.109758	-0.0560988	0.123263	-27.0723	-2.78519e-05
398103	7.23347	-3.02416	7.84019	22.6888	6.60348	-0.00136817	-0.158809	-0.132196	-0.0196687	1	10	0.00312783	0.000398948	-8.49958e-05	0.0000000E+000	-100.105	0.117677	-0.0491985	0.127548	-22.6888	-2.55281e-05
316230	7.14765	-2.39792	7.53916	18.5458	7.79349	-0.00134971	-0.148715	-0.209886	-0.0212328	1	10	0.00646836	0.000857969	-0.000131956	0.0000000E+000	-100.145	0.125753	-0.042188	0.132641	-18.5458	-2.30747e-05
251188	7.17758	-1.95958	7.44027	15.2704	8.98348	-0.00134067	-0.144376	-0.323339	-0.0224289	1	10	0.0121231	0.00162939	-0.000176799	0.0000000E+000	-100.081	0.129658	-0.0353987	0.134404	-15.2704	-2.0315e-05
199544	7.13546	-1.57785	7.30784	12.4691	10.1755	-0.00135889	-0.143155	-0.505493	-0.0235652	1	10	0.0219547	0.00300427	-0.000221899	0.0000000E+000	-100.121	0.133612	-0.0295454	0.136839	-12.4691	-2.76979e-05
158486	7.13141	-1.27386	7.24429	10.1277	11.3675	-0.0013669	-0.145378	-0.788331	-0.0243757	1	10	0.0396541	0.00547384	-0.000254578	0.0000000E+000	-100.177	0.135889	-0.0242733	0.13804	-10.1277	-1.77598e-05
125909	7.10714	-1.02298	7.18038	8.19072	12.5575	-0.00137501	-0.145829	-1.23565	-0.0250804	1	10	0.0676525	0.00942184	-0.000269848	0.0000000E+000	-100.073	0.137848	-0.0198414	0.139268	-8.19072	-5.35794e-06
100004	7.08848	-0.819388	7.13568	6.5938	13.7485	-0.00138938	-0.147354	-1.94229	-0.0256108	1	10	0.103726	0.0145362	-0.000300458	0.0000000E+000	-100.145	0.139214	-0.0160923	0.140141	-6.5938	-2.66496e-05
79433.3	7.08297	-0.656954	7.11337	5.29909	14.8035	-0.0013103	-0.138532	-3.04988	-0.0260136	1	10	0.129277	0.0181738	-0.000284581	0.0000000E+000	-100.097	0.139979	-0.0129833	0.14058	-5.29909	1.81897e-05
63093.8	7.0704	-0.526075	7.08994	4.25527	15.9955	-0.00131119	-0.13914	-4.79497	-0.0263995	1	10	0.130455	0.0184	-0.000301439	0.0000000E+000	-100.081	0.140656	-0.0104656	0.141045	-4.25527	6.22096e-06
50122.5	7.06056	-0.420983	7.0731	3.4122	17.1855	-0.00130273	-0.136563	-7.54263	-0.0267198	1	10	0.130223	0.018411	-0.000320835	0.0000000E+000	-100.105	0.14113	-0.00841482	0.141381	-3.4122	-4.12908e-05
39814.1	7.0545	-0.336287	7.06251	2.72921	18.3765	-0.00125226	-0.129923	-11.887	-0.026951	1	10	0.129897	0.0183925	-0.000372404	0.0000000E+000	-100.064	0.141432	-0.00674205	0.141593	-2.72921	-2.3035e-05
31621.1	7.05012	-0.268323	7.05523	2.17959	19.4315	-0.00127534	-0.135508	-18.7579	-0.0271318	1	10	0.131217	0.0185985	-0.000421894	0.0000000E+000	-100.04	0.141636	-0.00539059	0.141739	-2.17959	-1.74963e-05
25116.9	7.04819	-0.213625	7.05143	1.73606	20.4855	-0.0012828	-0.135104	-29.6621	-0.027224	1	10	0.130781	0.0185468	-0.0004415	0.0000000E+000	-100.097	0.14175	-0.00429633	0.141815	-1.73606	-3.73914e-06
19948.8	7.04562	-0.169542	7.04766	1.37847	21.5415	-0.00127497	-0.134773	-47.0572	-0.0272328	1	10	0.130005	0.0184466	-0.000529253	0.0000000E+000	-100.153	0.14185	-0.0034134	0.141891	-1.37847	-6.21602e-05
15847.7	7.04684	-0.135287	7.04814	1.09985	22.4615	-0.00129639	-0.136061	-74.2329	-0.0273503	1	10	0.139921	0.0198522	-0.00055403	0.0000000E+000	-100.145	0.141855	-0.00272338	0.141881	-1.09985	-9.3264e-06
12590.9	7.0443	-0.107277	7.04511	0.872488	23.5155	-0.00126352	-0.134596	-117.83	-0.0273209	1	10	0.133015	0.0188805	-0.000569429	0.0000000E+000	-100.121	0.141926	-0.00216138	0.141942	-0.872488	-5.21612e-06
10002.2	7.04554	-0.0852285	7.04606	0.693062	24.4345	-0.00128245	-0.134345	-186.697	-0.0273159	1	10	0.137976	0.019582	-0.000629426	0.0000000E+000	-100.153	0.141913	-0.00171669	0.141923	-0.693062	-3.3285e-05
7944	7.04172	-0.0674523	7.04204	0.548817	25.597	-0.00119542	-0.121892	-297.019	-0.0272509	1	10	0.129415	0.0183774	-0.000649476	0.0000000E+000	-100.089	0.141998	-0.00136019	0.142004	-0.548817	-9.23172e-06
6307.73	7.0414	-0.0536204	7.0416	0.4363	26.8085	-0.0011694	-0.117831	-470.562	-0.0272856	1	10	0.131527	0.0186786	-0.000687704	0.0000000E+000	-100.113	0.142009	-0.0010814	0.142013	-0.4363	-3.35681e-05
5011.6	7.04224	-0.0425391	7.04237	0.346095	28.2697	-0.00116095	-0.116904	-746.543	-0.0272392	1	10	0.13292	0.0188743	-0.0007552	0.0000000E+000	-100.113	0.141995	-0.000857731	0.141998	-0.346095	-4.01455e-05
3981.27	7.04243	-0.0334919	7.04251	0.272481	29.7897	-0.00115433	-0.115859	-1193.6	-0.026995	1	10	0.133842	0.0190049	-0.000820144	0.0000000E+000	-100.097	0.141993	-0.000675282	0.141995	-0.272481	-2.52373e-05
3161.01	7.04319	-0.0265037	7.04324	0.215605	31.3097	-0.00116129	-0.116502	-1899.71	-0.0269003	1	10	0.134419	0.0190848	-0.000874781	0.0000000E+000	-100.137	0.141979	-0.000534272	0.14198	-0.215605	-2.4996e-05
2510.8	7.04189	-0.0213984	7.04192	0.174106	32.8297	-0.0011661	-0.115732	-2962.28	-0.0273531	1	10	0.13479	0.0191411	-0.000901542	0.0000000E+000	-100.153	0.142006	-0.000431519	0.142007	-0.174106	-1.77121e-05
1995.64	7.04075	-0.0171597	7.04078	0.139641	34.3497	-0.00117575	-0.116819	-4647.59	-0.0276062	1	10	0.135026	0.0191777	-0.000948636	0.0000000E+000	-100.056	0.142029	-0.000346154	0.14203	-0.139641	-1.38874e-05
1778.29	7.04106	-0.0150054	7.04108	0.122104	35.1099	-0.00116628	-0.116151	-5964.44	-0.0270886	1	10	0.135105	0.0191881	-0.000990438	0.0000000E+000	-100.137	0.142023	-0.00030267	0.142024	-0.122104	-4.18014e-05