File: data/DE_49_6_30.mpt
EC-Lab ASCII FILE
Nb header lines : 75

Potentio Electrochemical Impedance Spectroscopy

Run on channel : 2 (SN 20919)
User :
CE vs. WE compliance from -10 V to 10 V
Electrode connection : standard
Ewe ctrl range : min = -10.00 V, max = 10.00 V
Safety Limits :
	Do not start on E overload
Acquisition started on : 01/22/2020 09:36:40
Technique started on : 01/22/2020 09:36:41
Saved on :
	File : DE_49_6_30.mpr
	Directory : P:\Chemistry\Data\VMP3\Kyler\DOE\DE_49\30C\
	Host : 10.0.4.99
Device : VMP3 (SN 0183)
Address : USB
EC-Lab for windows v11.33 (software)
Internet server v11.32 (firmware)
Command interpretor v11.33 (firmware)
Electrode material :
Initial state :
Electrolyte :
Comments :
Electrode surface area : 0.001 cm²
Characteristic mass : 0.001 g
Equivalent Weight : 0.000 g/eq.
Density : 0.000 g/cm3
Record Analogic IN 1
Cycle Definition : Charge/Discharge alternance
External device configuration :
   device type : Thermostat
   device name : Other
   Analog OUT :
      mode : E/V
      unit : T/°C
      max : 400.000 at 5.000 V
      min : -100.000 at 0.000 V
      current : 0.000
   Analog IN 1 :
      unit : T/°C
      max : 400.000 at 5.000 V
      min : -100.000 at 0.000 V
Mode                Single sine
E (V)               0.0000
vs.                 Eoc
tE (h:m:s)          0:00:0.0000
record              0
dI                  1.000
unit dI             mA
dt (s)              0.000
fi                  1.000
unit fi             MHz
ff                  1.000
unit ff             Hz
Nd                  20
Points              per decade
spacing             Logarithmic
Va (mV)             128.0
pw                  0.50
Na                  3
corr                0
E range min (V)     -10.000
E range max (V)     10.000
I Range             Auto
Bandwidth           5
nc cycles           0
goto Ns'            0
nr cycles           0
inc. cycle          1

freq/Hz	Re(Z)/Ohm	-Im(Z)/Ohm	|Z|/Ohm	Phase(Z)/deg	time/s	<Ewe>/V	<I>/mA	Cs/µF	Cp/µF	cycle number	I Range	|Ewe|/V	|I|/A	(Q-Qo)/mA.h	Analog OUT/V	Analog IN 1/V	Re(Y)/Ohm-1	Im(Y)/Ohm-1	|Y|/Ohm-1	Phase(Y)/deg	dq/mA.h
1.00002e+06	63.4226	157.911	170.171	-68.1178	1.95149	-0.00336445	0.00201652	0.00100786	0.000867864	1	11	0.00264826	1.55623e-05	1.57231e-06	0.0000000E+000	-100.094	0.00219014	0.00545305	0.00587644	68.1178	1.57231e-06
707950	93.5995	201.081	221.798	-65.0389	3.74048	-0.00231305	0.00209959	0.00111801	0.000918909	1	11	0.0131089	5.91027e-05	2.46977e-06	0.0000000E+000	-100.054	0.00190264	0.00408747	0.0045086	65.0389	2.43782e-07
501206	138.921	256.925	292.078	-61.5996	5.52747	-0.00168231	0.00213528	0.00123594	0.000956339	1	11	0.0349724	0.000119736	3.12501e-06	0.0000000E+000	-100.086	0.00162843	0.00301168	0.00342374	61.5996	2.98944e-08
354810	201.879	317.342	376.113	-57.5374	7.31349	-0.00150946	0.00198177	0.0014135	0.00100627	1	11	0.0659772	0.000175418	3.69191e-06	0.0000000E+000	-100.062	0.0014271	0.00224332	0.00265877	57.5374	4.66342e-09
251188	284.074	375.875	471.148	-52.9192	9.09949	-0.0015544	0.00204812	0.00168569	0.00107288	1	11	0.106193	0.000225392	4.78658e-06	0.0000000E+000	-100.134	0.00127973	0.00169328	0.00212248	52.9192	4.47175e-07
177832	385.003	430.084	577.235	-48.1657	10.9185	-0.00161945	0.000210053	0.00208093	0.00115521	1	12	0.0670621	0.000116178	5.63827e-06	0.0000000E+000	-100.11	0.00115547	0.00129077	0.0017324	48.1657	1.97689e-07
125909	498.502	471.617	686.241	-43.4126	12.7075	-0.00160116	0.000212591	0.00268023	0.0012659	1	12	0.107926	0.000157272	5.84189e-06	0.0000000E+000	-100.078	0.00105855	0.00100147	0.00145721	43.4126	3.36883e-08
89129.3	619.311	502.011	797.221	-39.0281	14.3585	-0.00150533	0.000215911	0.00355702	0.00141044	1	12	0.130196	0.000163313	5.5286e-06	0.0000000E+000	-100.086	0.000974432	0.00078987	0.00125436	39.0281	-2.99584e-08
63093.8	743.982	523.366	909.627	-35.1251	16.1465	-0.00142079	0.000231781	0.00481978	0.00159556	1	12	0.12995	0.00014286	5.52773e-06	0.0000000E+000	-100.054	0.000899157	0.000632527	0.00109935	35.1251	1.05115e-07
44666.7	870.883	537.471	1023.38	-31.6811	17.9335	-0.00136386	0.000255576	0.0066295	0.00182858	1	12	0.129521	0.000126562	5.57091e-06	0.0000000E+000	-100.094	0.000831541	0.000513191	0.000977151	31.6811	-2.13165e-08
31621.1	999.721	545.847	1139.03	-28.6345	19.5835	-0.00133666	0.000239836	0.00922086	0.00211759	1	12	0.130103	0.000114223	5.59654e-06	0.0000000E+000	-100.11	0.000770562	0.000420727	0.000877939	28.6345	-1.12502e-07
22389	1129.83	548.191	1255.8	-25.8826	21.0995	-0.00132308	0.00024985	0.0129674	0.00247103	1	12	0.133979	0.000106689	5.70869e-06	0.0000000E+000	-100.054	0.000716431	0.000347611	0.000796308	25.8826	2.54908e-08
15847.7	1260.14	543.921	1372.52	-23.3467	22.6155	-0.0013169	0.000244759	0.0184637	0.0028997	1	12	0.1294	9.42794e-05	5.66656e-06	0.0000000E+000	-100.086	0.000668933	0.000288735	0.000728587	23.3467	-7.86641e-08
11217.7	1388.35	531.973	1486.78	-20.9653	23.9945	-0.00131305	0.00023301	0.0266702	0.00341438	1	12	0.132459	8.9091e-05	5.68982e-06	0.0000000E+000	-100.046	0.000628067	0.000240656	0.000672595	20.9653	-8.15995e-09
7944	1511.55	512.53	1596.08	-18.7305	25.463	-0.00127141	0.000231872	0.0390897	0.00403078	1	12	0.133404	8.35823e-05	5.77133e-06	0.0000000E+000	-100.062	0.000593352	0.000201191	0.000626534	18.7305	1.05379e-07
5621.06	1626.7	487.334	1698.13	-16.6774	27.3753	-0.00124598	0.000217624	0.0581	0.00478506	1	12	0.13354	7.86397e-05	5.89208e-06	0.0000000E+000	-100.054	0.000564113	0.000168999	0.000588883	16.6774	6.9628e-08
3981.27	1729.64	458.124	1789.28	-14.8351	29.6557	-0.00123921	0.00021464	0.08726	0.00572037	1	12	0.133426	7.45699e-05	6.1907e-06	0.0000000E+000	-100.07	0.000540254	0.000143095	0.000558884	14.8351	6.81064e-08
2817.3	1819.78	430.566	1870.02	-13.3116	31.9359	-0.00124398	0.000224972	0.131204	0.00695559	1	12	0.133278	7.12708e-05	6.39241e-06	0.0000000E+000	-100.086	0.000520385	0.000123125	0.000534753	13.3116	2.29229e-08
1995.64	1896.43	409.612	1940.17	-12.1881	34.2157	-0.00123298	0.000216654	0.1947	0.00867827	1	12	0.133151	6.86289e-05	6.47182e-06	0.0000000E+000	-100.102	0.000503802	0.000108817	0.00051542	12.1881	3.2164e-08
1411.84	1959.72	401.908	2000.51	-11.5897	36.4972	-0.0012342	0.000244199	0.280485	0.0113209	1	12	0.133063	6.65144e-05	6.66401e-06	0.0000000E+000	-100.07	0.00048968	0.000100425	0.000499872	11.5897	9.20962e-08
1000.32	2016.1	412.548	2057.88	-11.5646	38.7747	-0.00123955	0.000242072	0.385662	0.0154995	1	12	0.132997	6.46282e-05	6.85166e-06	0.0000000E+000	-100.078	0.000476073	9.74171e-05	0.000485938	11.5646	8.7753e-08
707.509	2066.42	447.52	2114.32	-12.2197	41.0555	-0.0012459	0.000206508	0.502662	0.0225194	1	12	0.132955	6.2883e-05	7.01878e-06	0.0000000E+000	-100.086	0.000462249	0.000100108	0.000472965	12.2197	5.06285e-08
501.444	2119.1	511.04	2179.85	-13.5585	43.3272	-0.00124421	0.000214304	0.621073	0.0341349	1	12	0.132926	6.09796e-05	7.15276e-06	0.0000000E+000	-100.11	0.000445962	0.000107548	0.000458747	13.5585	8.93519e-08
354.66	2176.64	610.577	2260.66	-15.6695	45.6069	-0.00123938	0.000209529	0.734967	0.0536143	1	12	0.132906	5.87911e-05	7.19017e-06	0.0000000E+000	-100.022	0.00042591	0.000119474	0.00044235	15.6695	1.11603e-08
251.044	2242.7	750.009	2364.79	-18.4911	47.8759	-0.0012506	0.000210704	0.845285	0.0850262	1	12	0.132888	5.61945e-05	7.40401e-06	0.0000000E+000	-100.078	0.00040104	0.000134117	0.000422871	18.4911	9.88911e-08
177.781	2326.15	945.93	2511.13	-22.1291	50.1682	-0.00124057	0.000220346	0.9464	0.134294	1	12	0.132873	5.29137e-05	7.63105e-06	0.0000000E+000	-100.102	0.000368893	0.00015001	0.000398227	22.1291	3.92425e-08
125.846	2423.78	1208.51	2708.36	-26.5012	52.6934	-0.00125524	4.77566e-05	1.04648	0.208363	1	13	0.133297	4.9217e-05	7.83715e-06	0.0000000E+000	-100.078	0.000330431	0.000164755	0.000369227	26.5012	1.42433e-07
89.116	2543.4	1560.12	2983.77	-31.5249	54.9657	-0.00125243	4.35429e-05	1.14474	0.312963	1	13	0.133181	4.4635e-05	7.81899e-06	0.0000000E+000	-100.046	0.000285683	0.000175238	0.000335147	31.5249	2.99664e-08
63.0823	2694.36	2036.07	3377.15	-37.0775	57.2618	-0.00125142	4.46876e-05	1.23914	0.450406	1	13	0.133077	3.9405e-05	7.83052e-06	0.0000000E+000	-100.07	0.00023624	0.000178522	0.000296107	37.0775	-1.15756e-10
44.6712	2885.89	2676.78	3936.18	-42.8472	59.5262	-0.00126024	3.86766e-05	1.33101	0.615539	1	13	0.132993	3.37874e-05	7.90628e-06	0.0000000E+000	-100.054	0.000186264	0.000172768	0.000254054	42.8472	3.09917e-09
31.6296	3137.33	3536.51	4727.55	-48.4229	61.7635	-0.00126374	2.53288e-05	1.42283	0.796213	1	13	0.132923	2.81167e-05	7.95139e-06	0.0000000E+000	-100.102	0.000140374	0.000158235	0.000211526	48.4229	3.48918e-08
22.3854	3473.06	4709.04	5851.25	-53.5901	64.0104	-0.00126171	3.57247e-05	1.50981	0.977889	1	13	0.132883	2.27101e-05	7.96175e-06	0.0000000E+000	-100.086	0.000101441	0.000137542	0.000170904	53.5901	-2.63512e-08
15.8576	3931.9	6297.48	7424.16	-58.021	66.3389	-0.00126292	3.5775e-05	1.59374	1.14672	1	13	0.132852	1.78945e-05	8.04514e-06	0.0000000E+000	-100.07	7.13359e-05	0.000114254	0.000134695	58.021	1.01513e-07
11.2249	4626.71	8382.43	9574.53	-61.1034	68.7159	-0.0012614	3.00473e-05	1.69149	1.29651	1	13	0.132832	1.38735e-05	8.04292e-06	0.0000000E+000	-100.03	5.04705e-05	9.14398e-05	0.000104444	61.1034	6.90559e-08
7.93953	5645.53	11226.6	12566.2	-63.3036	71.2587	-0.00125501	3.65662e-05	1.78557	1.42517	1	13	0.132821	1.05697e-05	8.08326e-06	0.0000000E+000	-100.094	3.57518e-05	7.10955e-05	7.95787e-05	63.3036	6.80782e-08
5.6205	7232.51	14939.7	16598.3	-64.1677	73.1237	-0.00126045	2.844e-05	1.89541	1.53554	1	13	0.132814	8.00165e-06	8.00995e-06	0.0000000E+000	-100.054	2.62521e-05	5.42269e-05	6.02472e-05	64.1677	-3.27633e-08
3.97785	9814.29	19682.1	21993.3	-63.4973	75.6592	-0.00125082	3.21436e-05	2.03283	1.62803	1	13	0.132815	6.03888e-06	8.13946e-06	0.0000000E+000	-100.046	2.02898e-05	4.06903e-05	4.54684e-05	63.4973	-8.58282e-10
2.81836	13798.1	25565.8	29051.6	-61.6438	79.5616	-0.00124061	2.76889e-05	2.20884	1.71057	1	14	0.13283	4.57219e-06	8.17727e-06	0.0000000E+000	-100.054	1.63485e-05	3.02913e-05	3.44215e-05	61.6438	4.05039e-08
1.99706	19946.6	32481.6	38117.2	-58.4463	84.4247	-0.00123441	2.44048e-05	2.45353	1.78166	1	14	0.132822	3.48458e-06	8.19071e-06	0.0000000E+000	-100.11	1.37286e-05	2.23561e-05	2.62349e-05	58.4463	7.09738e-08
1.41224	29264.2	39351.6	49040.2	-53.3633	91.2302	-0.00123205	3.24432e-05	2.86385	1.84404	1	14	0.132816	2.70831e-06	8.11882e-06	0.0000000E+000	-100.086	1.21684e-05	1.63628e-05	2.03914e-05	53.3633	-1.3161e-07
1.00006	41852.5	43590.6	60429.9	-46.1654	100.776	-0.00122507	1.83401e-05	3.6509	1.89968	1	14	0.132814	2.19783e-06	8.25332e-06	0.0000000E+000	-100.086	1.14609e-05	1.19368e-05	1.65481e-05	46.1654	4.78754e-08