File: data/DE_49_7_30.mpt
EC-Lab ASCII FILE
Nb header lines : 75

Potentio Electrochemical Impedance Spectroscopy

Run on channel : 3 (SN 20921)
User :
CE vs. WE compliance from -10 V to 10 V
Electrode connection : standard
Ewe ctrl range : min = -10.00 V, max = 10.00 V
Safety Limits :
	Do not start on E overload
Acquisition started on : 01/22/2020 09:36:27
Technique started on : 01/22/2020 09:36:28
Saved on :
	File : DE_49_7_30.mpr
	Directory : P:\Chemistry\Data\VMP3\Kyler\DOE\DE_49\30C\
	Host : 10.0.4.99
Device : VMP3 (SN 0183)
Address : USB
EC-Lab for windows v11.33 (software)
Internet server v11.32 (firmware)
Command interpretor v11.33 (firmware)
Electrode material :
Initial state :
Electrolyte :
Comments :
Electrode surface area : 0.001 cm²
Characteristic mass : 0.001 g
Equivalent Weight : 0.000 g/eq.
Density : 0.000 g/cm3
Record Analogic IN 1
Cycle Definition : Charge/Discharge alternance
External device configuration :
   device type : Thermostat
   device name : Other
   Analog OUT :
      mode : E/V
      unit : T/°C
      max : 400.000 at 5.000 V
      min : -100.000 at 0.000 V
      current : 0.000
   Analog IN 1 :
      unit : T/°C
      max : 400.000 at 5.000 V
      min : -100.000 at 0.000 V
Mode                Single sine
E (V)               0.0000
vs.                 Eoc
tE (h:m:s)          0:00:0.0000
record              0
dI                  1.000
unit dI             mA
dt (s)              0.000
fi                  1.000
unit fi             MHz
ff                  1.000
unit ff             Hz
Nd                  20
Points              per decade
spacing             Logarithmic
Va (mV)             128.0
pw                  0.50
Na                  3
corr                0
E range min (V)     -10.000
E range max (V)     10.000
I Range             Auto
Bandwidth           5
nc cycles           0
goto Ns'            0
nr cycles           0
inc. cycle          1

freq/Hz	Re(Z)/Ohm	-Im(Z)/Ohm	|Z|/Ohm	Phase(Z)/deg	time/s	<Ewe>/V	<I>/mA	Cs/µF	Cp/µF	cycle number	I Range	|Ewe|/V	|I|/A	(Q-Qo)/mA.h	Analog OUT/V	Analog IN 1/V	Re(Y)/Ohm-1	Im(Y)/Ohm-1	|Y|/Ohm-1	Phase(Y)/deg	dq/mA.h
1.00002e+06	91.0738	291.811	305.693	-72.6669	1.64647	-0.017024	0.00253649	0.000545394	0.000496985	1	11	0.000487183	1.5937e-06	4.7891e-07	0.0000000E+000	-100.088	0.000974592	0.00312271	0.00327126	72.6669	4.7891e-07
707950	131.234	377.797	399.941	-70.8445	3.43449	-0.0159563	0.00257414	0.000595058	0.000530988	1	11	0.00779204	1.9483e-05	1.62838e-06	0.0000000E+000	-100.096	0.000820454	0.00236193	0.00250037	70.8445	3.72439e-07
501206	236.666	507.308	559.797	-64.9903	5.52747	-0.015365	0.000280132	0.000625939	0.000514061	1	12	0.0122975	2.19678e-05	2.82176e-06	0.0000000E+000	-100.112	0.000755224	0.00161887	0.00178636	64.9903	3.31829e-07
354810	316.586	656.458	728.81	-64.2537	7.31549	-0.0152069	0.000294805	0.000683309	0.000554374	1	12	0.0292234	4.00973e-05	2.87813e-06	0.0000000E+000	-100.128	0.000596023	0.00123589	0.0013721	64.2537	9.51809e-10
251188	422.285	837.336	937.793	-63.2373	9.10147	-0.0152118	0.000295477	0.000756697	0.000603264	1	12	0.0571217	6.09108e-05	2.99815e-06	0.0000000E+000	-100.096	0.000480166	0.000952106	0.00106633	63.2373	8.20334e-08
177832	557.796	1050.27	1189.21	-62.0274	10.8905	-0.0151673	0.000306626	0.000852135	0.000664659	1	12	0.101023	8.49503e-05	3.2111e-06	0.0000000E+000	-100.12	0.000394423	0.000742657	0.000840897	62.0274	3.62328e-08
125909	716.07	1305.27	1488.79	-61.2508	12.5415	-0.0150893	0.000264845	0.000968417	0.000744386	1	12	0.130378	8.75737e-05	3.46135e-06	0.0000000E+000	-100.072	0.000323066	0.000588892	0.000671689	61.2508	1.80396e-07
89129.3	897.541	1628.93	1859.84	-61.1453	14.3295	-0.0150213	0.000279536	0.00109622	0.000840914	1	12	0.130304	7.00619e-05	3.59642e-06	0.0000000E+000	-100.08	0.000259479	0.000470925	0.00053768	61.1453	-6.79085e-08
63093.8	1095.02	2042.44	2317.47	-61.8027	16.1165	-0.0149708	0.000283003	0.00123505	0.000959305	1	12	0.129533	5.58943e-05	3.79469e-06	0.0000000E+000	-100.104	0.00020389	0.000380297	0.000431506	61.8027	8.145e-09
44666.7	1331.89	2601.57	2922.68	-62.8895	17.7675	-0.0149606	0.000276925	0.00136962	0.00108519	1	12	0.129834	4.44227e-05	3.86472e-06	0.0000000E+000	-100.096	0.000155921	0.000304559	0.000342151	62.8895	1.96206e-08
31621.1	1622.11	3348.72	3720.91	-64.1546	19.2825	-0.0149448	0.00027933	0.00150302	0.00121737	1	12	0.129634	3.48394e-05	4.01007e-06	0.0000000E+000	-100.096	0.000117161	0.000241869	0.000268751	64.1546	9.98299e-09
22389	1992.92	4364.82	4798.27	-65.4591	20.8275	-0.0149497	2.16435e-05	0.00162862	0.00134767	1	13	0.135657	2.82721e-05	4.09226e-06	0.0000000E+000	-100.104	8.65609e-05	0.000189582	0.000208409	65.4591	2.74058e-08
15847.7	2498.54	5716.43	6238.61	-66.3908	22.4785	-0.0149212	2.44574e-05	0.00175683	0.00147504	1	13	0.129476	2.0754e-05	4.14666e-06	0.0000000E+000	-100.056	6.41965e-05	0.000146875	0.000160292	66.3908	-1.98147e-08
11217.7	3205.29	7516.13	8171.05	-66.904	23.8575	-0.0149282	2.33446e-05	0.00188765	0.00159718	1	13	0.125527	1.53624e-05	4.16463e-06	0.0000000E+000	-100.096	4.80077e-05	0.000112574	0.000122383	66.904	-7.8006e-09
7944	4235.33	9895	10763.3	-66.8278	25.326	-0.0149191	2.90548e-05	0.00202472	0.00171121	1	13	0.117761	1.0941e-05	4.17653e-06	0.0000000E+000	-100.08	3.6559e-05	8.54129e-05	9.29081e-05	66.8278	-5.18779e-09
5621.06	5814.76	12998.7	14240	-65.8994	27.4232	-0.0148858	2.74483e-05	0.00217822	0.00181502	1	13	0.124979	8.7766e-06	4.19267e-06	0.0000000E+000	-100.08	2.86755e-05	6.41032e-05	7.02247e-05	65.8994	7.81451e-09
3981.27	8274.91	16898.6	18815.9	-63.9099	29.7027	-0.0148834	2.72358e-05	0.00236563	0.0019081	1	13	0.121726	6.4693e-06	4.21634e-06	0.0000000E+000	-100.056	2.3373e-05	4.77312e-05	5.31467e-05	63.9099	8.19663e-09
2817.3	12148.9	21519.5	24712	-60.5529	31.9829	-0.0148738	2.61156e-05	0.00262516	0.00199068	1	13	0.119956	4.85415e-06	4.24118e-06	0.0000000E+000	-100.056	1.98939e-05	3.52383e-05	4.04661e-05	60.5529	5.91531e-09
1995.64	18006.2	26288.6	31864	-55.591	34.2627	-0.0148752	2.89652e-05	0.00303369	0.00206493	1	13	0.119013	3.73502e-06	4.25519e-06	0.0000000E+000	-100.04	1.77347e-05	2.58921e-05	3.13834e-05	55.591	6.75916e-09
1411.84	26253.1	30278.2	40074.9	-49.0727	36.7942	-0.0148812	2.06499e-06	0.0037231	0.0021253	1	14	0.122708	3.06197e-06	4.26661e-06	0.0000000E+000	-100.072	1.63469e-05	1.88532e-05	2.49533e-05	49.0727	-1.02501e-09
1000.32	36038.1	32155.4	48298.1	-41.7413	39.0717	-0.0148765	2.46646e-06	0.00494798	0.00219318	1	14	0.120493	2.49478e-06	4.26655e-06	0.0000000E+000	-100.08	1.5449e-05	1.37846e-05	2.07047e-05	41.7413	-8.78786e-10
707.509	45963.3	31231.1	55569.8	-34.1953	41.3524	-0.0148794	2.15502e-06	0.00720279	0.00227508	1	14	0.119311	2.14706e-06	4.26682e-06	0.0000000E+000	-100.088	1.48845e-05	1.01137e-05	1.79954e-05	34.1953	3.25933e-10
501.444	54242.6	28146.1	61110.3	-27.4244	43.6242	-0.0148894	2.22533e-06	0.0112766	0.00239214	1	14	0.118701	1.9424e-06	4.26796e-06	0.0000000E+000	-100.072	1.45249e-05	7.53684e-06	1.63639e-05	27.4244	-1.05358e-09
354.66	60283.4	24343.3	65013	-21.9896	45.904	-0.0148861	2.27232e-06	0.0184344	0.00258457	1	14	0.118379	1.82085e-06	4.27238e-06	0.0000000E+000	-100.096	1.42626e-05	5.75943e-06	1.53815e-05	21.9896	1.34892e-09
251.044	64337.8	21081.6	67703.6	-18.1425	48.1729	-0.0148818	2.63688e-06	0.0300722	0.00291575	1	14	0.11822	1.74614e-06	4.27108e-06	0.0000000E+000	-100.08	1.4036e-05	4.59917e-06	1.47703e-05	18.1425	-1.5113e-09
177.781	67152	19013.2	69791.8	-15.8087	50.4652	-0.0148868	2.36574e-06	0.0470847	0.00349446	1	14	0.118131	1.69262e-06	4.27153e-06	0.0000000E+000	-100.056	1.37864e-05	3.90342e-06	1.43283e-05	15.8087	1.53702e-09
125.846	69375.5	18261.8	71738.8	-14.7475	52.7404	-0.0148894	2.61804e-06	0.0692531	0.00448762	1	14	0.118089	1.64609e-06	4.27217e-06	0.0000000E+000	-100.08	1.34803e-05	3.54841e-06	1.39395e-05	14.7475	-9.34383e-10
89.116	71580.4	18928.5	74040.8	-14.8121	55.0127	-0.0148869	2.35921e-06	0.0943515	0.00616648	1	14	0.118063	1.59456e-06	4.27291e-06	0.0000000E+000	-100.04	1.30572e-05	3.45281e-06	1.35061e-05	14.8121	1.75221e-09
63.0823	74053.9	20854.3	76934.3	-15.7277	57.3088	-0.0148858	2.66895e-06	0.120981	0.0088893	1	14	0.11804	1.5343e-06	4.27376e-06	0.0000000E+000	-100.056	1.25115e-05	3.52334e-06	1.29981e-05	15.7277	5.70788e-10
44.6712	77120.8	23950.5	80754.2	-17.2526	59.5742	-0.0148869	2.51287e-06	0.148757	0.0130851	1	14	0.118033	1.46163e-06	4.277e-06	0.0000000E+000	-100.104	1.18261e-05	3.67269e-06	1.23833e-05	17.2526	5.74299e-10
31.6296	80928.1	28171.8	85691.3	-19.1935	61.8114	-0.0148955	1.67222e-06	0.178613	0.0193049	1	14	0.118022	1.3773e-06	4.27982e-06	0.0000000E+000	-100.08	1.10211e-05	3.83655e-06	1.16698e-05	19.1935	1.80493e-09
22.3854	85656.8	33510.8	91978.6	-21.3665	64.0594	-0.0148924	2.08731e-06	0.212164	0.0281622	1	14	0.118017	1.2831e-06	4.28016e-06	0.0000000E+000	-100.08	1.01248e-05	3.96106e-06	1.08721e-05	21.3665	-4.3565e-10
15.8576	91360.4	40093.5	99770.8	-23.6943	66.3879	-0.0148927	2.01122e-06	0.250328	0.040425	1	14	0.118011	1.18282e-06	4.28497e-06	0.0000000E+000	-100.088	9.17806e-06	4.02779e-06	1.0023e-05	23.6943	6.06077e-09
11.2249	98099.8	48117.1	109265	-26.1275	68.7649	-0.0148967	2.04777e-06	0.294673	0.0571448	1	14	0.118008	1.08002e-06	4.28631e-06	0.0000000E+000	-100.112	8.21687e-06	4.0303e-06	9.15207e-06	26.1275	6.2709e-09
7.93953	106008	58162.5	120916	-28.7518	71.3087	-0.0148873	2.21075e-06	0.344653	0.0797446	1	14	0.118003	9.75908e-07	4.28693e-06	0.0000000E+000	-100.064	7.25059e-06	3.9781e-06	8.27021e-06	28.7518	3.37903e-09
5.6205	115400	70469.8	135215	-31.4106	73.1737	-0.0149007	-2.01903e-07	0.40183	0.109143	1	14	0.118002	8.72697e-07	4.27875e-06	0.0000000E+000	-100.072	6.31183e-06	3.85437e-06	7.39563e-06	31.4106	-3.34445e-09
3.97785	126016	86021.5	152577	-34.3185	75.7092	-0.0148934	3.26323e-06	0.465119	0.147844	1	14	0.117999	7.73375e-07	4.29185e-06	0.0000000E+000	-100.08	5.41313e-06	3.69514e-06	6.55408e-06	34.3185	-1.93549e-09
2.81836	138626	105942	174473	-37.3881	79.2087	-0.0148853	2.3878e-06	0.533035	0.196533	1	14	0.117998	6.76313e-07	4.29712e-06	0.0000000E+000	-100.048	4.55395e-06	3.48026e-06	5.73155e-06	37.3881	6.37411e-09
1.99706	153160	131098	201605	-40.562	84.0706	-0.014881	2.03205e-06	0.607902	0.257053	1	14	0.118001	5.85306e-07	4.29203e-06	0.0000000E+000	-100.032	3.76827e-06	3.22547e-06	4.9602e-06	40.562	-7.77395e-09
1.41224	170410	164030	236528	-43.9072	90.8782	-0.0148727	2.18772e-06	0.687051	0.330424	1	14	0.117998	4.98876e-07	4.28137e-06	0.0000000E+000	-100.056	3.046e-06	2.93197e-06	4.22784e-06	43.9072	-2.72759e-08
1.00006	190268	206537	280820	-47.3478	100.424	-0.0148726	2.69738e-06	0.770538	0.416808	1	14	0.117999	4.20195e-07	4.3114e-06	0.0000000E+000	-100.08	2.41275e-06	2.61905e-06	3.561e-06	47.3478	2.19793e-08