File: data/DE_40_3_60.mpt
EC-Lab ASCII FILE
Nb header lines : 75

Potentio Electrochemical Impedance Spectroscopy

Run on channel : 3 (SN 20921)
User :
CE vs. WE compliance from -10 V to 10 V
Electrode connection : standard
Ewe ctrl range : min = -10.00 V, max = 10.00 V
Safety Limits :
	Do not start on E overload
Acquisition started on : 01/24/2020 09:45:13
Technique started on : 01/24/2020 09:45:14
Saved on :
	File : DE_40_3_60.mpr
	Directory : P:\Chemistry\Data\VMP3\Kyler\DOE\DE_40\2ND 60C\
	Host : 10.0.4.99
Device : VMP3 (SN 0183)
Address : USB
EC-Lab for windows v11.33 (software)
Internet server v11.32 (firmware)
Command interpretor v11.33 (firmware)
Electrode material :
Initial state :
Electrolyte :
Comments :
Electrode surface area : 0.001 cm²
Characteristic mass : 0.001 g
Equivalent Weight : 0.000 g/eq.
Density : 0.000 g/cm3
Record Analogic IN 1
Cycle Definition : Charge/Discharge alternance
External device configuration :
   device type : Thermostat
   device name : Other
   Analog OUT :
      mode : E/V
      unit : T/°C
      max : 400.000 at 5.000 V
      min : -100.000 at 0.000 V
      current : 0.000
   Analog IN 1 :
      unit : T/°C
      max : 400.000 at 5.000 V
      min : -100.000 at 0.000 V
Mode                Single sine
E (V)               0.0000
vs.                 Eoc
tE (h:m:s)          0:00:0.0000
record              0
dI                  1.000
unit dI             mA
dt (s)              0.000
fi                  1.000
unit fi             MHz
ff                  1.000
unit ff             Hz
Nd                  20
Points              per decade
spacing             Logarithmic
Va (mV)             128.0
pw                  0.50
Na                  3
corr                0
E range min (V)     -10.000
E range max (V)     10.000
I Range             Auto
Bandwidth           5
nc cycles           0
goto Ns'            0
nr cycles           0
inc. cycle          1

freq/Hz	Re(Z)/Ohm	-Im(Z)/Ohm	|Z|/Ohm	Phase(Z)/deg	time/s	<Ewe>/V	<I>/mA	Cs/µF	Cp/µF	cycle number	I Range	|Ewe|/V	|I|/A	(Q-Qo)/mA.h	Analog OUT/V	Analog IN 1/V	Re(Y)/Ohm-1	Im(Y)/Ohm-1	|Y|/Ohm-1	Phase(Y)/deg	dq/mA.h
1.00002e+06	4.4603	-1.6544	4.75724	20.3507	1.8466	-0.00610015	0.25528	-0.096199	-0.0116344	1	9	3.05911e-05	6.43042e-06	2.69996e-05	0.0000000E+000	-100.08	0.197085	-0.0731024	0.210206	-20.3507	2.69996e-05
707950	87.7789	24.3573	91.0956	-15.5085	4.21248	-0.0050971	0.00241944	0.00922974	0.000659859	1	11	0.00297743	3.26846e-05	5.32649e-05	0.0000000E+000	-100.064	0.0105778	0.00293517	0.0109775	15.5085	5.23721e-07
501206	95.3619	20.2185	97.4817	-11.9705	6.00249	-0.00446244	0.00247387	0.0157056	0.000675627	1	11	0.0118538	0.0001216	5.4876e-05	0.0000000E+000	-100.072	0.0100353	0.00212766	0.0102583	11.9705	5.31376e-07
354810	100.257	16.2648	101.568	-9.21487	7.78949	-0.00429999	0.00254321	0.0275788	0.00070723	1	11	0.0277467	0.000273184	5.57919e-05	0.0000000E+000	-100.072	0.00971858	0.00157665	0.00984564	9.21487	-1.53156e-07
251188	102.925	12.648	103.699	-7.00572	9.57648	-0.00431184	0.0024735	0.0500957	0.000745239	1	11	0.0513076	0.000494775	5.80899e-05	0.0000000E+000	-100.096	0.00957132	0.00117618	0.00964331	7.00572	1.41049e-07
177832	104.268	9.87407	104.734	-5.40973	11.3645	-0.00428849	0.00229701	0.0906389	0.000805619	1	11	0.0832266	0.000794646	5.94422e-05	0.0000000E+000	-100.064	0.00950545	0.000900158	0.00954798	5.40973	1.37121e-06
125909	104.927	7.94911	105.228	-4.33237	13.0165	-0.0042415	0.00253242	0.159017	0.000907447	1	11	0.122843	0.0011674	5.87108e-05	0.0000000E+000	-100.08	0.00947605	0.000717892	0.00950321	4.33237	-3.88757e-07
89129.3	105.251	6.83637	105.473	-3.7163	14.6655	-0.00413563	0.00246718	0.261201	0.00109734	1	11	0.129787	0.00123052	6.07292e-05	0.0000000E+000	-100.096	0.00946115	0.000614528	0.00948109	3.7163	1.74077e-06
63093.8	105.376	6.43506	105.572	-3.49458	16.4545	-0.00405773	0.00254491	0.391995	0.00145642	1	11	0.129443	0.00122611	5.87313e-05	0.0000000E+000	-100.096	0.00945459	0.00057737	0.0094722	3.49458	6.94201e-07
44666.7	105.424	6.7322	105.639	-3.65386	18.1055	-0.00402593	0.00250559	0.529272	0.00214955	1	11	0.140218	0.00132734	6.14189e-05	0.0000000E+000	-100.04	0.00944699	0.00060327	0.00946623	3.65386	1.32363e-06
31621.1	105.454	7.76306	105.739	-4.21028	19.7575	-0.00398658	0.00240847	0.64835	0.00349465	1	11	0.130029	0.00122972	6.46202e-05	0.0000000E+000	-100.112	0.00943171	0.000694322	0.00945724	4.21028	1.76928e-06
22389	105.528	9.64258	105.968	-5.22086	21.2715	-0.00397566	0.00243923	0.73721	0.00610419	1	11	0.135489	0.00127858	6.57548e-05	0.0000000E+000	-100.112	0.00939765	0.000858703	0.0094368	5.22086	8.35658e-07
15847.7	105.672	12.5764	106.418	-6.78705	22.7865	-0.00395782	0.00249663	0.79854	0.0111527	1	11	0.133383	0.00125339	6.6742e-05	0.0000000E+000	-100.064	0.00933105	0.00111052	0.0093969	6.78705	1.53405e-06
11217.7	105.959	16.8769	107.295	-9.04992	24.3025	-0.00395162	0.00240344	0.840665	0.0207995	1	11	0.12927	0.00120481	7.02784e-05	0.0000000E+000	-100.088	0.00920411	0.00146601	0.00932013	9.04992	3.42064e-06
7944	106.493	22.9771	108.944	-12.1756	25.771	-0.00392094	0.00258815	0.871939	0.0387857	1	11	0.133251	0.00122311	7.2283e-05	0.0000000E+000	-100.056	0.00897257	0.00193593	0.00917905	12.1756	6.01e-07
5621.06	107.344	31.5053	111.872	-16.3568	27.6833	-0.0038974	0.00249085	0.898709	0.0712756	1	11	0.135212	0.00120863	7.35853e-05	0.0000000E+000	-100.088	0.00857699	0.00251732	0.00893877	16.3568	6.26981e-07
3981.27	108.713	43.2268	116.992	-21.6839	29.9637	-0.00389979	0.00256932	0.924794	0.126253	1	11	0.135972	0.00116224	7.30405e-05	0.0000000E+000	-100.072	0.00794276	0.00315823	0.00854762	21.6839	-3.48524e-07
2817.3	110.905	59.2808	125.754	-28.1253	32.243	-0.00391265	0.00243941	0.952957	0.211765	1	11	0.136035	0.00108175	7.57097e-05	0.0000000E+000	-100.064	0.00701302	0.00374858	0.007952	28.1253	2.35908e-07
1995.64	114.206	80.9749	140	-35.3376	34.5227	-0.00392247	0.00233746	0.98489	0.329485	1	11	0.135715	0.000969398	7.60497e-05	0.0000000E+000	-100.032	0.00582686	0.0041314	0.00714288	35.3376	6.69745e-07
1411.84	118.977	110.413	162.317	-42.8619	36.8042	-0.00390838	0.00243493	1.02097	0.472422	1	11	0.135255	0.00083328	7.749e-05	0.0000000E+000	-100.072	0.00451583	0.00419078	0.00616079	42.8619	8.35287e-07
1000.32	125.472	150.003	195.561	-50.0889	39.0817	-0.00390167	0.00248824	1.06067	0.624048	1	11	0.134811	0.000689355	7.90862e-05	0.0000000E+000	-100.08	0.00328081	0.00392226	0.0051135	50.0889	6.95089e-07
707.509	134.137	203.891	244.058	-56.6596	41.3614	-0.00390489	0.00246195	1.10329	0.770015	1	11	0.13447	0.000550974	8.05777e-05	0.0000000E+000	-100.056	0.00225197	0.00342303	0.00409738	56.6596	2.73359e-07
501.444	145.232	276.777	312.567	-62.3128	43.8832	-0.00392642	0.000267203	1.14675	0.899171	1	12	0.137371	0.000439494	8.17593e-05	0.0000000E+000	-100.064	0.00148654	0.00283299	0.00319932	62.3128	3.32231e-07
354.66	159.549	376.875	409.257	-67.0548	46.1629	-0.0039237	0.000275908	1.19072	1.00975	1	12	0.135831	0.000331897	8.17733e-05	0.0000000E+000	-100.08	0.000952583	0.00225012	0.00244345	67.0548	1.71601e-07
251.044	177.88	513.923	543.836	-70.9081	48.4319	-0.0039278	0.000242419	1.23359	1.10162	1	12	0.134949	0.000248142	8.21296e-05	0.0000000E+000	-100.088	0.000601438	0.00173765	0.00183879	70.9081	2.07187e-07
177.781	201.188	702.281	730.531	-74.0142	50.7243	-0.00393136	0.000240349	1.27474	1.17806	1	12	0.134459	0.000184056	8.19834e-05	0.0000000E+000	-100.08	0.000376986	0.00131593	0.00136887	74.0142	-1.33311e-07
125.846	231.226	962.303	989.693	-76.4889	52.9994	-0.00392881	0.000235501	1.31423	1.24249	1	12	0.134188	0.000135585	8.22386e-05	0.0000000E+000	-100.064	0.000236067	0.00098245	0.00101041	76.4889	1.40785e-07
89.116	270.67	1321.63	1349.06	-78.4259	55.2717	-0.0039256	0.000239247	1.35131	1.29691	1	12	0.13405	9.93652e-05	8.23228e-05	0.0000000E+000	-100.144	0.000148722	0.000726182	0.000741254	78.4259	-3.93906e-08
63.0823	323.595	1819.17	1847.73	-79.9137	57.5679	-0.00392661	0.000249034	1.38688	1.34434	1	12	0.133973	7.25068e-05	8.25148e-05	0.0000000E+000	-100.08	9.47821e-05	0.000532841	0.000541205	79.9137	2.285e-08
44.6712	395.731	2508.46	2539.48	-81.035	59.8332	-0.0039262	0.00024579	1.42032	1.38583	1	12	0.133933	5.27404e-05	8.26423e-05	0.0000000E+000	-100.064	6.13634e-05	0.00038897	0.000393781	81.035	3.14046e-08
31.6296	496.724	3463.31	3498.75	-81.838	62.3234	-0.00393313	3.47919e-05	1.4529	1.42361	1	13	0.134104	3.83292e-05	8.26135e-05	0.0000000E+000	-100.08	4.05778e-05	0.000282921	0.000285816	81.838	-3.2653e-08
22.3854	642.147	4783.77	4826.67	-82.3546	64.5714	-0.00393682	2.71618e-05	1.48623	1.45992	1	13	0.134002	2.77629e-05	8.26701e-05	0.0000000E+000	-100.072	2.75638e-05	0.00020534	0.000207182	82.3546	-1.76448e-08
15.8576	850.551	6600.23	6654.81	-82.6569	66.899	-0.00394118	2.9439e-05	1.52063	1.49579	1	13	0.133946	2.01277e-05	8.26657e-05	0.0000000E+000	-100.08	1.92057e-05	0.000149035	0.000150267	82.6569	-5.57857e-08
11.2249	1158.59	9111.73	9185.09	-82.7535	69.2759	-0.00393367	2.67235e-05	1.5561	1.53134	1	13	0.133922	1.45804e-05	8.26423e-05	0.0000000E+000	-100.072	1.37329e-05	0.000108002	0.000108872	82.7535	-9.00213e-08
7.93953	1603.9	12575.8	12677.7	-82.7318	71.8197	-0.00392098	2.66534e-05	1.594	1.56849	1	13	0.133904	1.05622e-05	8.27457e-05	0.0000000E+000	-100.088	9.97929e-06	7.82451e-05	7.88789e-05	82.7318	5.46804e-08
5.6205	2286.46	17386.1	17535.8	-82.508	73.6847	-0.00393203	1.51368e-05	1.62871	1.60102	1	13	0.133892	7.63538e-06	8.27875e-05	0.0000000E+000	-100.072	7.43555e-06	5.65394e-05	5.70263e-05	82.508	-4.52796e-09
3.97785	3283.61	23873.5	24098.3	-82.1686	76.2202	-0.00392552	3.91856e-05	1.67593	1.64481	1	13	0.133894	5.55616e-06	8.27715e-05	0.0000000E+000	-100.096	5.6543e-06	4.11097e-05	4.14967e-05	82.1686	9.06219e-08
2.81836	4698.42	32907.4	33241.1	-81.8744	80.0836	-0.00390852	1.7177e-05	1.71605	1.68177	1	14	0.133909	4.02841e-06	8.27227e-05	0.0000000E+000	-100.104	4.25208e-06	2.97812e-05	3.00833e-05	81.8744	-3.02622e-08
1.99706	7121.19	45018.5	45578.2	-81.0112	84.9457	-0.00390795	1.351e-05	1.77026	1.72705	1	14	0.133901	2.93782e-06	8.27817e-05	0.0000000E+000	-100.112	3.42798e-06	2.16709e-05	2.19403e-05	81.0112	5.76739e-08
1.41224	10537.4	61299.4	62198.5	-80.2461	91.7521	-0.0039049	2.90066e-06	1.83847	1.7857	1	14	0.133896	2.15271e-06	8.28496e-05	0.0000000E+000	-100.072	2.7238e-06	1.58452e-05	1.60776e-05	80.2461	1.24878e-07
1.00006	16017.5	83322.2	84847.8	-79.1184	101.297	-0.00390863	1.63934e-06	1.90999	1.84192	1	14	0.133897	1.57809e-06	8.27494e-05	0.0000000E+000	-100.08	2.22492e-06	1.15739e-05	1.17858e-05	79.1184	-9.58057e-08