File: data/DE_49_9_30.mpt
EC-Lab ASCII FILE
Nb header lines : 75

Potentio Electrochemical Impedance Spectroscopy

Run on channel : 1 (SN 20909)
User :
CE vs. WE compliance from -10 V to 10 V
Electrode connection : standard
Ewe ctrl range : min = -10.00 V, max = 10.00 V
Safety Limits :
	Do not start on E overload
Acquisition started on : 01/22/2020 09:43:49
Technique started on : 01/22/2020 09:43:50
Saved on :
	File : DE_49_9_30.mpr
	Directory : P:\Chemistry\Data\VMP3\Kyler\DOE\DE_49\30C\
	Host : 10.0.4.99
Device : VMP3 (SN 0183)
Address : USB
EC-Lab for windows v11.33 (software)
Internet server v11.32 (firmware)
Command interpretor v11.33 (firmware)
Electrode material :
Initial state :
Electrolyte :
Comments :
Electrode surface area : 0.001 cm²
Characteristic mass : 0.001 g
Equivalent Weight : 0.000 g/eq.
Density : 0.000 g/cm3
Record Analogic IN 1
Cycle Definition : Charge/Discharge alternance
External device configuration :
   device type : Thermostat
   device name : Other
   Analog OUT :
      mode : E/V
      unit : T/°C
      max : 400.000 at 5.000 V
      min : -100.000 at 0.000 V
      current : 0.000
   Analog IN 1 :
      unit : T/°C
      max : 400.000 at 5.000 V
      min : -100.000 at 0.000 V
Mode                Single sine
E (V)               0.0000
vs.                 Eoc
tE (h:m:s)          0:00:0.0000
record              0
dI                  1.000
unit dI             mA
dt (s)              0.000
fi                  1.000
unit fi             MHz
ff                  1.000
unit ff             Hz
Nd                  20
Points              per decade
spacing             Logarithmic
Va (mV)             128.0
pw                  0.50
Na                  3
corr                0
E range min (V)     -10.000
E range max (V)     10.000
I Range             Auto
Bandwidth           5
nc cycles           0
goto Ns'            0
nr cycles           0
inc. cycle          1

freq/Hz	Re(Z)/Ohm	-Im(Z)/Ohm	|Z|/Ohm	Phase(Z)/deg	time/s	<Ewe>/V	<I>/mA	Cs/µF	Cp/µF	cycle number	I Range	|Ewe|/V	|I|/A	(Q-Qo)/mA.h	Analog OUT/V	Analog IN 1/V	Re(Y)/Ohm-1	Im(Y)/Ohm-1	|Y|/Ohm-1	Phase(Y)/deg	dq/mA.h
1.00002e+06	32.983	202.649	205.316	-80.7557	1.95148	-0.00180695	0.00316315	0.000785357	0.000765089	1	11	0.00575394	2.80248e-05	8.52487e-07	0.0000000E+000	-100.07	0.000782429	0.00480729	0.00487055	80.7557	8.52487e-07
707950	52.7119	270.316	275.407	-78.9657	3.73949	-0.000417602	0.00321765	0.000831662	0.000801196	1	11	0.0202912	7.3677e-05	2.4093e-06	0.0000000E+000	-100.046	0.000694958	0.00356386	0.00363099	78.9657	5.03798e-07
501206	73.9895	369.759	377.089	-78.6844	5.5275	0.000635172	0.00324994	0.000858787	0.000825724	1	11	0.045215	0.000119906	4.31768e-06	0.0000000E+000	-100.078	0.000520335	0.00260035	0.0026519	78.6844	8.01859e-07
354810	101.664	504.394	514.538	-78.6043	7.3155	0.00114726	0.003182	0.000889313	0.000854595	1	11	0.0775517	0.000150721	5.84776e-06	0.0000000E+000	-100.046	0.000384001	0.00190518	0.00194349	78.6043	6.27409e-07
251188	181.482	716.961	739.573	-75.7952	9.40449	0.00123654	0.0012359	0.000883744	0.000830529	1	12	0.0585248	7.91332e-05	6.49399e-06	0.0000000E+000	-100.126	0.000331797	0.00131079	0.00135213	75.7952	1.66657e-07
177832	235.69	959.601	988.121	-76.2006	11.1925	0.00133536	0.00125034	0.000932653	0.000879591	1	12	0.106092	0.000107368	6.84054e-06	0.0000000E+000	-100.062	0.000241391	0.000982811	0.00101202	76.2006	1.46618e-08
125909	304.51	1286.44	1321.99	-76.6828	12.8435	0.00148305	0.00126203	0.000982587	0.000930454	1	12	0.130756	9.89079e-05	7.35848e-06	0.0000000E+000	-100.102	0.000174238	0.000736093	0.000756433	76.6828	1.26913e-07
89129.3	391.36	1730.04	1773.76	-77.2534	14.6295	0.00162956	0.00122548	0.00103215	0.000981902	1	12	0.13025	7.34317e-05	7.91803e-06	0.0000000E+000	-100.134	0.000124391	0.000549881	0.000563775	77.2534	1.75464e-08
63093.8	502.671	2335.65	2389.13	-77.8542	16.4165	0.00165688	0.00120932	0.00108001	0.0010322	1	12	0.129338	5.41363e-05	8.49668e-06	0.0000000E+000	-100.07	8.80655e-05	0.000409194	0.000418563	77.8542	1.67946e-07
44666.7	646.225	3164.09	3229.41	-78.4568	17.9315	0.00167836	0.00118881	0.00112613	0.00108103	1	12	0.135333	4.19065e-05	9.02809e-06	0.0000000E+000	-100.11	6.19639e-05	0.000303391	0.000309655	78.4568	1.21787e-07
31621.1	841.398	4303.32	4384.81	-78.9369	19.4455	0.00168472	0.00119232	0.0011696	0.00112654	1	12	0.131196	2.99205e-05	9.61803e-06	0.0000000E+000	-100.07	4.37623e-05	0.000223822	0.00022806	78.9369	1.73641e-07
22389	1369.85	5907.4	6064.15	-76.9446	21.2645	0.00167243	0.000963446	0.00120334	0.00114194	1	13	0.129398	2.13383e-05	1.01124e-05	0.0000000E+000	-100.07	3.72506e-05	0.000160641	0.000164904	76.9446	1.29392e-07
15847.7	1760.78	8035.57	8226.23	-77.6405	22.6425	0.0016847	0.000976311	0.00124979	0.00119253	1	13	0.133346	1.62099e-05	1.04683e-05	0.0000000E+000	-100.07	2.60199e-05	0.000118745	0.000121562	77.6405	1.09815e-07
11217.7	2345.37	10969.7	11217.6	-77.9316	24.0205	0.00167264	0.000970219	0.00129337	0.00123683	1	13	0.122463	1.09171e-05	1.08198e-05	0.0000000E+000	-100.078	1.86386e-05	8.71755e-05	8.91457e-05	77.9316	1.17074e-07
7944	3256.97	15015.7	15364.9	-77.7619	25.642	0.00168646	0.000967123	0.00133424	0.00127429	1	13	0.126592	8.23904e-06	1.12571e-05	0.0000000E+000	-100.086	1.3796e-05	6.36044e-05	6.50834e-05	77.7619	1.81927e-07
5621.06	4726.93	20511	21048.6	-77.0223	27.5533	0.00174441	0.000983923	0.00138044	0.00131082	1	13	0.121972	5.79479e-06	1.17621e-05	0.0000000E+000	-100.102	1.06692e-05	4.62956e-05	4.75091e-05	77.0223	1.85401e-07
3981.27	7209.6	27913.1	28829.1	-75.5177	29.8337	0.00175918	0.00100127	0.00143216	0.00134259	1	13	0.119564	4.14735e-06	1.23803e-05	0.0000000E+000	-100.078	8.6746e-06	3.3585e-05	3.46872e-05	75.5177	2.09384e-07
2817.3	13926	37762.6	40248.6	-69.7572	32.3649	0.00174609	0.000970546	0.00149598	0.00131689	1	14	0.128238	3.18616e-06	1.30592e-05	0.0000000E+000	-100.102	8.59658e-06	2.3311e-05	2.48456e-05	69.7572	2.66525e-07
1995.64	21186.6	49647	53978.6	-66.8899	34.6447	0.00174544	0.000958492	0.00160637	0.0013589	1	14	0.123236	2.28306e-06	1.36698e-05	0.0000000E+000	-100.078	7.27138e-06	1.70392e-05	1.85258e-05	66.8899	2.00283e-07
1411.84	33148.8	63602.3	71722.3	-62.472	36.9252	0.00174971	0.00096967	0.0017724	0.0013938	1	14	0.120302	1.67733e-06	1.42803e-05	0.0000000E+000	-100.03	6.44405e-06	1.23641e-05	1.39427e-05	62.472	2.03127e-07
1000.32	51240.6	77413.5	92835.6	-56.4991	39.2027	0.00174602	0.000972323	0.00205525	0.00142912	1	14	0.118726	1.27889e-06	1.48903e-05	0.0000000E+000	-100.102	5.94545e-06	8.9823e-06	1.07717e-05	56.4991	2.03993e-07
707.509	75661.9	87596	115749	-49.1809	41.4824	0.00174156	0.000973075	0.00256805	0.00147075	1	14	0.117895	1.01854e-06	1.55026e-05	0.0000000E+000	-100.07	5.64735e-06	6.5381e-06	8.6394e-06	49.1809	2.04151e-07
501.444	102729	91076	137289	-41.559	43.7542	0.00175049	0.000969928	0.00348493	0.00153367	1	14	0.117473	8.55666e-07	1.61121e-05	0.0000000E+000	-100.07	5.45037e-06	4.83209e-06	7.28393e-06	41.559	2.02787e-07
354.66	128405	87936.5	155630	-34.4049	46.034	0.00174997	0.000980814	0.00510316	0.00162927	1	14	0.11726	7.53455e-07	1.6727e-05	0.0000000E+000	-100.054	5.30147e-06	3.63065e-06	6.42551e-06	34.4049	2.05949e-07
251.044	148893	81388.8	169686	-28.6622	48.3019	0.00175601	0.000979508	0.00778941	0.00179202	1	14	0.117141	6.90342e-07	1.73408e-05	0.0000000E+000	-100.07	5.1711e-06	2.82666e-06	5.89324e-06	28.6622	2.03828e-07
177.781	163957	75369.1	180451	-24.6877	50.5942	0.00174872	0.00098031	0.0118779	0.0020721	1	14	0.117081	6.48824e-07	1.79658e-05	0.0000000E+000	-100.062	5.03516e-06	2.3146e-06	5.54168e-06	24.6877	2.09122e-07
125.846	175356	72434	189728	-22.4439	52.8694	0.00174898	0.000973739	0.0174598	0.00254485	1	14	0.117048	6.16929e-07	1.85786e-05	0.0000000E+000	-100.126	4.87148e-06	2.01225e-06	5.27071e-06	22.4439	2.0349e-07
89.116	185750	73793.9	199871	-21.6667	55.1418	0.00174106	0.000957516	0.0242016	0.00329902	1	14	0.117037	5.85562e-07	1.91842e-05	0.0000000E+000	-100.078	4.64973e-06	1.84723e-06	5.00322e-06	21.6667	2.04174e-07
63.0823	197208	80300.6	212930	-22.1555	57.4369	0.00175004	0.000961125	0.0314191	0.00446846	1	14	0.117054	5.49732e-07	1.97941e-05	0.0000000E+000	-100.086	4.34962e-06	1.77111e-06	4.69638e-06	22.1555	2.07497e-07
44.6712	207777	89477.6	226224	-23.2988	59.7022	0.00174809	0.000969656	0.0398179	0.00622914	1	14	0.117016	5.17258e-07	2.03985e-05	0.0000000E+000	-100.07	4.05993e-06	1.74838e-06	4.42039e-06	23.2988	2.0489e-07
31.6296	221461	103979	244656	-25.1507	61.9395	0.00174771	0.000963615	0.0483929	0.00874097	1	14	0.117011	4.78268e-07	2.09984e-05	0.0000000E+000	-100.062	3.69986e-06	1.73713e-06	4.08737e-06	25.1507	1.93901e-07
22.3854	237962	123028	267884	-27.3392	64.1864	0.00173552	0.000977439	0.05779	0.0121889	1	14	0.117009	4.3679e-07	2.16036e-05	0.0000000E+000	-100.046	3.316e-06	1.71439e-06	3.73297e-06	27.3392	1.86531e-07
15.8576	257732	147401	296906	-29.7659	66.5149	0.00173744	0.000970533	0.0680898	0.0167821	1	14	0.117001	3.94069e-07	2.22296e-05	0.0000000E+000	-100.11	2.92369e-06	1.67211e-06	3.36807e-06	29.7659	1.92341e-07
11.2249	281289	178858	333337	-32.4503	68.8919	0.00173388	0.000966381	0.079274	0.0228234	1	14	0.11701	3.51025e-07	2.28702e-05	0.0000000E+000	-100.038	2.53154e-06	1.60969e-06	2.99997e-06	32.4503	1.82244e-07
7.93953	309190	219405	379127	-35.36	71.4347	0.00174688	0.000963773	0.0913647	0.0305987	1	14	0.117001	3.08607e-07	2.35488e-05	0.0000000E+000	-100.046	2.15108e-06	1.52643e-06	2.63764e-06	35.36	2.48018e-07
5.6205	345285	266218	435998	-37.6326	73.2996	0.00173363	0.000968556	0.106367	0.0396565	1	14	0.117005	2.68361e-07	2.40507e-05	0.0000000E+000	-100.038	1.81639e-06	1.40046e-06	2.29359e-06	37.6326	1.85613e-07
3.97785	385890	332501	509380	-40.7497	75.8352	0.00174171	0.000962464	0.120331	0.051272	1	14	0.117003	2.29696e-07	2.47247e-05	0.0000000E+000	-100.078	1.48723e-06	1.28147e-06	1.96317e-06	40.7497	2.48803e-07
2.81836	425967	413804	593870	-44.1702	79.3347	0.00174434	0.000947667	0.136467	0.0662576	1	14	0.117001	1.97015e-07	2.56555e-05	0.0000000E+000	-100.062	1.2078e-06	1.17331e-06	1.68387e-06	44.1702	3.39347e-07
2.23982	475431	478952	674856	-45.2114	82.3934	0.00175174	0.000952143	0.148359	0.0747269	1	14	0.117004	1.73376e-07	2.64619e-05	0.0000000E+000	-100.07	1.04392e-06	1.05165e-06	1.4818e-06	45.2114	4.21706e-07