File: data/DE_49_5_30.mpt
EC-Lab ASCII FILE
Nb header lines : 75

Potentio Electrochemical Impedance Spectroscopy

Run on channel : 1 (SN 20909)
User :
CE vs. WE compliance from -10 V to 10 V
Electrode connection : standard
Ewe ctrl range : min = -10.00 V, max = 10.00 V
Safety Limits :
	Do not start on E overload
Acquisition started on : 01/22/2020 09:39:16
Technique started on : 01/22/2020 09:39:17
Saved on :
	File : DE_49_5_30.mpr
	Directory : P:\Chemistry\Data\VMP3\Kyler\DOE\DE_49\30C\
	Host : 10.0.4.99
Device : VMP3 (SN 0183)
Address : USB
EC-Lab for windows v11.33 (software)
Internet server v11.32 (firmware)
Command interpretor v11.33 (firmware)
Electrode material :
Initial state :
Electrolyte :
Comments :
Electrode surface area : 0.001 cm²
Characteristic mass : 0.001 g
Equivalent Weight : 0.000 g/eq.
Density : 0.000 g/cm3
Record Analogic IN 1
Cycle Definition : Charge/Discharge alternance
External device configuration :
   device type : Thermostat
   device name : Other
   Analog OUT :
      mode : E/V
      unit : T/°C
      max : 400.000 at 5.000 V
      min : -100.000 at 0.000 V
      current : 0.000
   Analog IN 1 :
      unit : T/°C
      max : 400.000 at 5.000 V
      min : -100.000 at 0.000 V
Mode                Single sine
E (V)               0.0000
vs.                 Eoc
tE (h:m:s)          0:00:0.0000
record              0
dI                  1.000
unit dI             mA
dt (s)              0.000
fi                  1.000
unit fi             MHz
ff                  1.000
unit ff             Hz
Nd                  20
Points              per decade
spacing             Logarithmic
Va (mV)             128.0
pw                  0.50
Na                  3
corr                0
E range min (V)     -10.000
E range max (V)     10.000
I Range             Auto
Bandwidth           5
nc cycles           0
goto Ns'            0
nr cycles           0
inc. cycle          1

freq/Hz	Re(Z)/Ohm	-Im(Z)/Ohm	|Z|/Ohm	Phase(Z)/deg	time/s	<Ewe>/V	<I>/mA	Cs/µF	Cp/µF	cycle number	I Range	|Ewe|/V	|I|/A	(Q-Qo)/mA.h	Analog OUT/V	Analog IN 1/V	Re(Y)/Ohm-1	Im(Y)/Ohm-1	|Y|/Ohm-1	Phase(Y)/deg	dq/mA.h
1.00002e+06	26.6662	105.261	108.586	-75.7841	1.95248	-0.00426258	0.00296737	0.00151197	0.00142079	1	11	0.00319528	2.94262e-05	6.50604e-07	0.0000000E+000	-100.086	0.00226158	0.00892726	0.00920927	75.7841	6.50604e-07
794333	41.3445	119.838	126.769	-70.9654	3.14347	-0.00327981	0.00303064	0.00167195	0.00149411	1	11	0.00836251	6.59663e-05	1.62964e-06	0.0000000E+000	-100.086	0.0025727	0.00745702	0.00788834	70.9654	3.91955e-07
630957	58.0752	139.889	151.465	-67.4542	4.33548	-0.00247649	0.00313217	0.00180317	0.00153808	1	11	0.0184257	0.000121649	2.705e-06	0.0000000E+000	-100.094	0.00253142	0.00609759	0.00660217	67.4542	6.33949e-07
501206	78.1922	163.75	181.461	-64.4751	5.52749	-0.00183158	0.00332627	0.0019392	0.00157913	1	11	0.0336749	0.000185577	3.71666e-06	0.0000000E+000	-100.046	0.00237464	0.00497296	0.00551083	64.4751	7.91737e-07
398103	103.495	189.591	216	-61.3706	6.71848	-0.00143878	0.00325013	0.00210866	0.00162456	1	11	0.0531425	0.00024603	4.67168e-06	0.0000000E+000	-100.07	0.00221825	0.0040636	0.00462963	61.3706	8.15685e-07
316230	134.743	216.179	254.733	-58.0649	7.90849	-0.00123075	0.00335147	0.00232811	0.00167672	1	11	0.0764906	0.000300277	6.32106e-06	0.0000000E+000	-100.062	0.00207652	0.00333152	0.00392568	58.0649	7.16527e-07
251188	172.223	241.184	296.362	-54.4703	9.09948	-0.00119746	0.00324416	0.00262708	0.0017399	1	11	0.103981	0.000350858	7.41847e-06	0.0000000E+000	-100.094	0.00196086	0.00274602	0.00337425	54.4703	5.05498e-07
199544	215.077	263.147	339.86	-50.74	10.0195	-0.00110564	0.00329026	0.00303098	0.00181711	1	11	0.135879	0.000399807	8.13686e-06	0.0000000E+000	-100.07	0.00186206	0.00227824	0.00294239	50.74	5.96296e-07
158486	262.031	281.56	384.625	-47.0574	11.2115	-0.000949597	0.00327346	0.00356663	0.00191128	1	11	0.130058	0.000338143	9.36929e-06	0.0000000E+000	-100.094	0.00177124	0.00190325	0.00259994	47.0574	1.22698e-06
125909	311.784	295.902	429.846	-43.5029	12.4055	-0.000867659	0.00331731	0.00427183	0.00202435	1	11	0.129682	0.000301693	1.09505e-05	0.0000000E+000	-100.038	0.00168744	0.00160149	0.00232642	43.5029	7.6381e-07
100004	362.853	305.967	474.634	-40.1384	13.5975	-0.000806009	0.00334027	0.00520152	0.00216152	1	11	0.129608	0.000273069	1.16599e-05	0.0000000E+000	-100.078	0.00161069	0.00135817	0.00210688	40.1384	4.30725e-07
79433.3	422.104	308.701	522.942	-36.1795	14.9555	-0.000972683	0.00112075	0.00649052	0.00226177	1	12	0.121572	0.000232478	1.26325e-05	0.0000000E+000	-100.094	0.00154352	0.00112884	0.00191226	36.1795	2.52264e-08
63093.8	472.023	312.718	566.214	-33.5247	16.0115	-0.00092597	0.00110957	0.00806641	0.00246051	1	12	0.131306	0.000231902	1.29589e-05	0.0000000E+000	-100.054	0.00147232	0.000975421	0.00176612	33.5247	3.35293e-07
50122.5	521.336	315.343	609.289	-31.1687	17.2025	-0.000863127	0.0011259	0.0100694	0.00269727	1	12	0.130006	0.000213374	1.32522e-05	0.0000000E+000	-100.054	0.00140434	0.000849449	0.00164126	31.1687	1.74944e-07
39814.1	570.085	316.89	652.239	-29.0681	18.3945	-0.000821487	0.00112838	0.0126147	0.00297768	1	12	0.129594	0.00019869	1.33852e-05	0.0000000E+000	-100.102	0.00134007	0.000744894	0.00153318	29.0681	1.2114e-07
31621.1	618.722	317.825	695.579	-27.1886	19.5855	-0.000803455	0.00114161	0.0158363	0.00330626	1	12	0.129384	0.000186009	1.38972e-05	0.0000000E+000	-100.086	0.0012788	0.000656893	0.00143765	27.1886	-9.85962e-08
25116.9	667.246	318.187	739.229	-25.4949	20.6415	-0.000785795	0.00113506	0.0199146	0.00368959	1	12	0.130061	0.000175942	1.39675e-05	0.0000000E+000	-100.038	0.00122103	0.00058227	0.00135276	25.4949	4.51602e-08
19948.8	715.969	317.756	783.314	-23.9323	21.6965	-0.000776621	0.00112707	0.0251078	0.00413167	1	12	0.129521	0.00016535	1.38477e-05	0.0000000E+000	-100.094	0.00116687	0.000517872	0.00127663	23.9323	-1.69828e-07
15847.7	764.626	316.241	827.442	-22.4694	22.6155	-0.00077373	0.00115266	0.0317568	0.0046387	1	12	0.13737	0.000166018	1.39731e-05	0.0000000E+000	-100.102	0.0011168	0.000461894	0.00120854	22.4694	3.95729e-08
12590.9	813.444	313.911	871.912	-21.1018	23.6705	-0.000762803	0.00114915	0.0402676	0.00521943	1	12	0.12941	0.000148421	1.4135e-05	0.0000000E+000	-100.038	0.00107	0.000412915	0.0011469	21.1018	-7.67378e-08
10002.2	861.726	310.123	915.832	-19.7931	24.5895	-0.000768192	0.00115031	0.0513085	0.00588336	1	12	0.131496	0.00014358	1.45604e-05	0.0000000E+000	-100.094	0.0010274	0.000369745	0.0010919	19.7931	2.48226e-07
7944	909.411	304.632	959.077	-18.5197	25.598	-0.000722897	0.00120848	0.0657666	0.00663513	1	12	0.132398	0.000138047	1.49429e-05	0.0000000E+000	-100.054	0.000988674	0.000331183	0.00104267	18.5197	2.49197e-07
6307.73	955.606	297.778	1000.93	-17.3076	26.8095	-0.000706058	0.00120846	0.0847334	0.00749953	1	12	0.132665	0.000132542	1.53007e-05	0.0000000E+000	-100.126	0.000953837	0.000297227	0.000999074	17.3076	1.18569e-07
5011.6	999.968	289.53	1041.04	-16.1478	28.2707	-0.000683979	0.0012393	0.109686	0.00848404	1	12	0.132624	0.000127396	1.58902e-05	0.0000000E+000	-100.094	0.000922681	0.000267153	0.000960578	16.1478	2.80077e-07
3981.27	1041.79	280.492	1078.89	-15.069	29.7907	-0.000689294	0.00120193	0.142521	0.0096331	1	12	0.132467	0.000122781	1.63367e-05	0.0000000E+000	-100.078	0.000895009	0.000240973	0.000926881	15.069	1.66443e-07
3161.01	1080.46	271.126	1113.95	-14.0867	31.3107	-0.000685545	0.00120768	0.185705	0.011001	1	12	0.132283	0.000118751	1.67721e-05	0.0000000E+000	-100.126	0.000870708	0.000218493	0.000897703	14.0867	2.10402e-07
2510.8	1115.31	262.107	1145.69	-13.225	32.8307	-0.000683196	0.00120214	0.24184	0.0126576	1	12	0.132116	0.000115315	1.71467e-05	0.0000000E+000	-100.07	0.000849686	0.000199684	0.000872835	13.225	2.19038e-07
1995.64	1145.89	254.947	1173.91	-12.5433	34.3507	-0.000682469	0.00119904	0.312815	0.0147543	1	12	0.131972	0.000112421	1.76629e-05	0.0000000E+000	-100.038	0.000831523	0.000185004	0.000851855	12.5433	1.63137e-07
1585.51	1172.52	251.267	1199.14	-12.0954	35.8707	-0.00068465	0.00121612	0.399499	0.0175407	1	12	0.131854	0.000109957	1.83031e-05	0.0000000E+000	-100.062	0.000815417	0.000174741	0.00083393	12.0954	3.2577e-07
1258.79	1196.25	252.566	1222.63	-11.9218	37.392	-0.000690468	0.0012259	0.500601	0.0213626	1	12	0.131771	0.000107777	1.89504e-05	0.0000000E+000	-100.094	0.00080027	0.000168961	0.000817912	11.9218	3.28735e-07
1000.32	1217	260.138	1244.49	-12.0656	38.9097	-0.000685937	0.00120275	0.611615	0.0267241	1	12	0.131705	0.00010583	1.95039e-05	0.0000000E+000	-100.046	0.000785792	0.000167966	0.000803544	12.0656	3.36877e-07
794.238	1236.06	275.431	1266.38	-12.5619	40.4279	-0.000690468	0.00119211	0.72754	0.0344155	1	12	0.131659	0.000103965	2.00089e-05	0.0000000E+000	-100.086	0.000770749	0.000171745	0.000789652	12.5619	1.8146e-07
631.01	1254.16	300.129	1289.58	-13.4581	41.9484	-0.000687168	0.00120464	0.84038	0.0455196	1	12	0.131618	0.000102063	2.06948e-05	0.0000000E+000	-100.078	0.000754155	0.000180474	0.000775449	13.4581	3.32202e-07
501.444	1273.53	335.535	1316.99	-14.7602	43.4622	-0.000682431	0.00122608	0.945933	0.0614005	1	12	0.131588	9.99161e-05	2.12661e-05	0.0000000E+000	-100.11	0.000734252	0.000193453	0.000759309	14.7602	2.94264e-07
398.089	1294.39	383.333	1349.96	-16.4966	44.9817	-0.000682711	0.00121682	1.04295	0.0840957	1	12	0.131564	9.74575e-05	2.16944e-05	0.0000000E+000	-100.046	0.00071027	0.000210346	0.000740762	16.4966	2.00818e-07
316.316	1318.68	445.405	1391.87	-18.6632	46.4989	-0.000677415	0.00122289	1.12965	0.115679	1	12	0.131538	9.45045e-05	2.21807e-05	0.0000000E+000	-100.11	0.000680678	0.000229909	0.000718457	18.6632	2.08538e-07
251.044	1348.02	523.725	1446.18	-21.2319	48.0109	-0.000680921	0.00119734	1.21051	0.158755	1	12	0.131524	9.09458e-05	2.28227e-05	0.0000000E+000	-100.078	0.000644541	0.000250414	0.000691476	21.2319	3.13921e-07
199.553	1384.28	620.995	1517.19	-24.1613	49.5342	-0.000685061	0.00120654	1.28432	0.215164	1	12	0.131504	8.66764e-05	2.33057e-05	0.0000000E+000	-100.062	0.000601373	0.000269779	0.000659113	24.1613	1.83173e-07
158.428	1430.51	740.391	1610.76	-27.3648	51.0687	-0.000681219	0.00120884	1.35683	0.286675	1	12	0.131482	8.16273e-05	2.38126e-05	0.0000000E+000	-100.038	0.000551355	0.000285366	0.000620827	27.3648	2.75664e-07
125.846	1489.64	885.163	1732.78	-30.7194	52.5774	-0.000684669	0.00119553	1.42876	0.372836	1	12	0.131464	7.58689e-05	2.43034e-05	0.0000000E+000	-100.062	0.000496127	0.000294806	0.000577107	30.7194	2.30319e-07
100.032	1565.8	1058.29	1889.9	-34.0539	54.0827	-0.000677825	0.00121111	1.50341	0.471422	1	12	0.131446	6.9552e-05	2.47207e-05	0.0000000E+000	-100.054	0.00043839	0.000296298	0.00052913	34.0539	2.10761e-07
79.4155	1665.13	1264.77	2091.01	-37.2191	55.6142	-0.000682469	0.00120897	1.58453	0.579719	1	12	0.131435	6.28572e-05	2.52333e-05	0.0000000E+000	-100.086	0.000380835	0.000289269	0.000478239	37.2191	2.68735e-07
63.0823	1795.78	1506.26	2343.86	-39.9891	57.1458	-0.000681965	0.0011892	1.67499	0.691753	1	12	0.131421	5.60705e-05	2.57189e-05	0.0000000E+000	-100.102	0.000326883	0.000274182	0.000426647	39.9891	2.29271e-07
50.1444	1965.6	1787.66	2656.94	-42.2856	58.6472	-0.000679149	0.00120122	1.77547	0.803747	1	12	0.131412	4.946e-05	2.62714e-05	0.0000000E+000	-100.086	0.000278441	0.000253234	0.000376373	42.2856	2.75173e-07
39.8089	2187.74	2105.68	3036.47	-43.9051	60.4257	-0.000685005	0.00101323	1.89866	0.913053	1	13	0.13159	4.33364e-05	2.6798e-05	0.0000000E+000	-100.062	0.000237279	0.000228379	0.00032933	43.9051	2.67235e-07
31.6296	2474.44	2464.27	3492.2	-44.882	61.9005	-0.000684893	0.00102045	2.04192	1.01676	1	13	0.13153	3.7664e-05	2.71109e-05	0.0000000E+000	-100.046	0.000202898	0.000202064	0.000286352	44.882	1.64828e-07
25.1044	2842.41	2851.73	4026.37	-45.0938	63.4619	-0.00069362	0.00104168	2.22311	1.11519	1	13	0.131479	3.26545e-05	2.75995e-05	0.0000000E+000	-100.094	0.000175331	0.000175906	0.000248362	45.0938	2.35934e-07
19.9553	3302.02	3249.96	4633.1	-44.5447	64.9102	-0.000688604	0.00102646	2.45406	1.20753	1	13	0.131452	2.83723e-05	2.80587e-05	0.0000000E+000	-100.078	0.000153829	0.000151403	0.000215838	44.5447	2.6838e-07