File: data/DE_40_6_60.mpt
EC-Lab ASCII FILE
Nb header lines : 75

Potentio Electrochemical Impedance Spectroscopy

Run on channel : 2 (SN 20919)
User :
CE vs. WE compliance from -10 V to 10 V
Electrode connection : standard
Ewe ctrl range : min = -10.00 V, max = 10.00 V
Safety Limits :
	Do not start on E overload
Acquisition started on : 01/24/2020 09:52:15
Technique started on : 01/24/2020 09:52:16
Saved on :
	File : DE_40_6_60.mpr
	Directory : P:\Chemistry\Data\VMP3\Kyler\DOE\DE_40\2ND 60C\
	Host : 10.0.4.99
Device : VMP3 (SN 0183)
Address : USB
EC-Lab for windows v11.33 (software)
Internet server v11.32 (firmware)
Command interpretor v11.33 (firmware)
Electrode material :
Initial state :
Electrolyte :
Comments :
Electrode surface area : 0.001 cm²
Characteristic mass : 0.001 g
Equivalent Weight : 0.000 g/eq.
Density : 0.000 g/cm3
Record Analogic IN 1
Cycle Definition : Charge/Discharge alternance
External device configuration :
   device type : Thermostat
   device name : Other
   Analog OUT :
      mode : E/V
      unit : T/°C
      max : 400.000 at 5.000 V
      min : -100.000 at 0.000 V
      current : 0.000
   Analog IN 1 :
      unit : T/°C
      max : 400.000 at 5.000 V
      min : -100.000 at 0.000 V
Mode                Single sine
E (V)               0.0000
vs.                 Eoc
tE (h:m:s)          0:00:0.0000
record              0
dI                  1.000
unit dI             mA
dt (s)              0.000
fi                  1.000
unit fi             MHz
ff                  1.000
unit ff             Hz
Nd                  20
Points              per decade
spacing             Logarithmic
Va (mV)             128.0
pw                  0.50
Na                  3
corr                0
E range min (V)     -10.000
E range max (V)     10.000
I Range             Auto
Bandwidth           5
nc cycles           0
goto Ns'            0
nr cycles           0
inc. cycle          1

freq/Hz	Re(Z)/Ohm	-Im(Z)/Ohm	|Z|/Ohm	Phase(Z)/deg	time/s	<Ewe>/V	<I>/mA	Cs/µF	Cp/µF	cycle number	I Range	|Ewe|/V	|I|/A	(Q-Qo)/mA.h	Analog OUT/V	Analog IN 1/V	Re(Y)/Ohm-1	Im(Y)/Ohm-1	|Y|/Ohm-1	Phase(Y)/deg	dq/mA.h
1.00002e+06	60.5052	20.6884	63.9445	-18.8769	1.64649	-0.0119508	0.00171508	0.00769283	0.000805253	1	11	0.00106115	1.65949e-05	3.82488e-07	0.0000000E+000	-100.102	0.0147975	0.00505965	0.0156386	18.8769	3.82488e-07
794333	63.692	16.4479	65.7815	-14.4798	2.83748	-0.0111904	0.00157625	0.0121817	0.000761589	1	11	0.00293121	4.45598e-05	9.95735e-07	0.0000000E+000	-100.086	0.014719	0.00380105	0.0152018	14.4798	2.26201e-07
630957	68.0912	13.798	69.4752	-11.4553	4.02848	-0.010641	0.0015809	0.0182812	0.000721071	1	11	0.00663983	9.55713e-05	1.50678e-06	0.0000000E+000	-100.102	0.0141069	0.00285863	0.0143936	11.4553	1.8637e-07
501206	71.3017	11.9887	72.3025	-9.54449	5.22147	-0.0102784	0.00178403	0.0264869	0.000728232	1	11	0.0125268	0.000173255	2.12651e-06	0.0000000E+000	-100.15	0.0136393	0.00229333	0.0138308	9.54449	1.77316e-07
398103	73.5235	10.4152	74.2576	-8.06273	6.41249	-0.0101238	0.00172791	0.0383847	0.000755108	1	11	0.0208037	0.000280156	2.39822e-06	0.0000000E+000	-100.062	0.0133335	0.00188879	0.0134666	8.06273	2.97682e-07
316230	74.9989	9.06046	75.5442	-6.8884	7.60549	-0.0101133	0.00180764	0.0555478	0.000799033	1	11	0.0317086	0.000419735	4.39199e-06	0.0000000E+000	-100.078	0.0131417	0.00158762	0.0132373	6.8884	1.22601e-06
251188	75.9433	7.88079	76.3511	-5.92449	8.79849	-0.0101405	0.00163164	0.0803992	0.000856566	1	11	0.0457333	0.000598986	5.50888e-06	0.0000000E+000	-100.094	0.0130274	0.00135188	0.0130974	5.92449	1.86347e-07
199544	76.5014	6.96288	76.8176	-5.20053	9.99148	-0.010153	0.00154152	0.11455	0.000941131	1	11	0.0631173	0.000821652	6.80692e-06	0.0000000E+000	-100.07	0.0129643	0.00117996	0.0130178	5.20053	1.3804e-06
158486	76.8568	6.33972	77.1179	-4.7155	11.1825	-0.0101185	0.00154449	0.158401	0.0010705	1	11	0.0836228	0.00108435	8.43744e-06	0.0000000E+000	-100.094	0.0129233	0.00106601	0.0129672	4.7155	8.69963e-07
125909	77.084	6.00789	77.3178	-4.4566	12.3745	-0.0101252	0.00155956	0.210397	0.00127036	1	11	0.107229	0.00138686	6.45164e-06	0.0000000E+000	-100.07	0.0128945	0.00100499	0.0129336	4.4566	-1.23022e-06
100004	77.2641	5.95137	77.4929	-4.40459	13.2935	-0.0101089	0.00162573	0.267416	0.00157724	1	11	0.134889	0.00174067	4.23967e-06	0.0000000E+000	-100.126	0.0128663	0.000991044	0.0129044	4.40459	-1.43855e-06
79433.3	77.3918	6.16799	77.6372	-4.55674	14.4835	-0.0100028	0.00176233	0.324843	0.00205032	1	11	0.129685	0.0016704	7.64606e-07	0.0000000E+000	-100.086	0.0128397	0.0010233	0.0128804	4.55674	2.68024e-07
63093.8	77.5052	6.6822	77.7927	-4.92764	15.6745	-0.00995285	0.00176066	0.377497	0.00278532	1	11	0.129579	0.00166569	3.09516e-06	0.0000000E+000	-100.078	0.0128072	0.00110419	0.0128547	4.92764	3.11974e-07
50122.5	77.6195	7.50334	77.9813	-5.52153	16.8645	-0.00992429	0.00171568	0.423187	0.00391797	1	11	0.129461	0.00166016	6.98571e-06	0.0000000E+000	-100.126	0.0127641	0.00123388	0.0128236	5.52153	7.31944e-07
39814.1	77.7443	8.68157	78.2275	-6.37172	18.0565	-0.00988796	0.00167684	0.460453	0.00567104	1	11	0.129365	0.00165371	7.79145e-06	0.0000000E+000	-100.11	0.0127043	0.00141866	0.0127832	6.37172	-6.46579e-07
31621.1	77.918	10.2795	78.5931	-7.51545	19.1115	-0.00985848	0.00183871	0.489634	0.00837615	1	11	0.13037	0.0016588	7.23378e-06	0.0000000E+000	-100.102	0.0126145	0.00166419	0.0127238	7.51545	-4.46565e-07
25116.9	78.1454	12.3577	79.1165	-8.98615	20.1675	-0.00984424	0.00166829	0.512764	0.01251	1	11	0.130053	0.00164382	4.74805e-06	0.0000000E+000	-100.086	0.0124845	0.00197425	0.0126396	8.98615	-1.14968e-06
19948.8	78.4555	15.0072	79.8779	-10.8289	21.2225	-0.00983246	0.00178612	0.531623	0.0187651	1	11	0.12959	0.00162235	5.74695e-06	0.0000000E+000	-100.062	0.0122962	0.00235205	0.0125191	10.8289	-5.09504e-07
15847.7	78.8862	18.3518	80.9928	-13.0962	22.1415	-0.00983518	0.00172591	0.547236	0.0280958	1	11	0.140399	0.00173348	8.4382e-06	0.0000000E+000	-100.07	0.0120257	0.00279761	0.0123468	13.0962	1.18042e-06
12590.9	79.4588	22.5257	82.59	-15.8274	23.1965	-0.00983123	0.00170583	0.561158	0.0417432	1	11	0.133054	0.00161102	8.8402e-06	0.0000000E+000	-100.07	0.011649	0.00330235	0.012108	15.8274	-7.21065e-07
10002.2	80.2476	27.7136	84.8983	-19.0524	24.1155	-0.00982998	0.00165305	0.574156	0.0611813	1	11	0.137947	0.00162485	9.89906e-06	0.0000000E+000	-100.03	0.0111336	0.00384499	0.0117788	19.0524	1.80905e-06
7944	81.3064	34.1208	88.1757	-22.7657	25.278	-0.00979663	0.00187439	0.587168	0.0879228	1	11	0.129324	0.00146666	8.24968e-06	0.0000000E+000	-100.054	0.0104575	0.00438854	0.011341	22.7657	-1.77506e-06
6307.73	82.7321	42.0031	92.7839	-26.9169	26.4896	-0.00977625	0.00187532	0.600711	0.123107	1	11	0.130566	0.0014072	8.92392e-06	0.0000000E+000	-100.078	0.00961012	0.00487905	0.0107777	26.9169	1.643e-06
5011.6	84.6161	51.6083	99.1126	-31.3795	27.9507	-0.00977275	0.00187977	0.615352	0.166842	1	11	0.130823	0.00131994	9.97191e-06	0.0000000E+000	-100.07	0.00861381	0.00525367	0.0100895	31.3795	2.56709e-07
3981.27	87.0927	63.3052	107.669	-36.0123	29.4707	-0.00976059	0.00200837	0.631479	0.2183	1	11	0.130483	0.00121189	1.14789e-05	0.0000000E+000	-100.062	0.00751273	0.00546079	0.0092877	36.0123	1.21741e-06
3161.01	90.3273	77.5139	119.027	-40.6344	30.9907	-0.00976145	0.00204089	0.649553	0.275475	1	11	0.12984	0.00109084	1.34441e-05	0.0000000E+000	-100.046	0.0063757	0.00547127	0.00840145	40.6344	1.02943e-06
2510.8	94.4633	94.6713	133.738	-45.063	32.5107	-0.00976939	0.00188682	0.669559	0.335516	1	11	0.129118	0.000965454	1.47349e-05	0.0000000E+000	-100.038	0.00528142	0.00529305	0.00747728	45.063	1.48639e-07
1995.64	99.6742	115.282	152.397	-49.153	34.0307	-0.00976262	0.0020972	0.691791	0.395864	1	11	0.128438	0.000842784	1.549e-05	0.0000000E+000	-100.094	0.00429168	0.00496372	0.00656179	49.153	1.09234e-06
1585.51	106.16	140.164	175.829	-52.8599	35.5507	-0.00976654	0.0020026	0.716168	0.455101	1	11	0.12787	0.000727243	1.53248e-05	0.0000000E+000	-100.102	0.00343383	0.00453373	0.00568734	52.8599	-1.09715e-07
1258.79	114.188	170.201	204.956	-56.1423	37.072	-0.00977167	0.00193606	0.742857	0.512277	1	11	0.127415	0.000621669	1.53276e-05	0.0000000E+000	-100.07	0.00271829	0.00405171	0.00487909	56.1423	-6.24331e-08
1000.32	123.939	206.236	240.612	-58.9959	38.5897	-0.00976507	0.00190038	0.771465	0.566775	1	11	0.127086	0.000528176	1.59472e-05	0.0000000E+000	-100.11	0.00214078	0.00356229	0.00415606	58.9959	-1.65536e-08
794.238	135.704	249.792	284.274	-61.4861	40.108	-0.00977359	0.00191673	0.802215	0.619404	1	11	0.126834	0.000446166	1.67412e-05	0.0000000E+000	-100.054	0.00167926	0.00309104	0.00351773	61.4861	7.11032e-07
631.01	149.779	302.282	337.354	-63.6418	41.8804	-0.00977854	0.00019212	0.834396	0.66992	1	12	0.13016	0.000385824	1.63991e-05	0.0000000E+000	-100.102	0.00131607	0.00265607	0.00296424	63.6418	1.24082e-07
501.444	166.617	365.533	401.716	-65.4955	43.3942	-0.00977517	0.000171549	0.868303	0.718929	1	12	0.128897	0.000320866	1.66287e-05	0.0000000E+000	-100.062	0.00103248	0.00226511	0.00248932	65.4955	-1.39017e-07
398.089	186.655	442.403	480.167	-67.1246	44.9137	-0.00977413	0.000180443	0.903695	0.767138	1	12	0.128034	0.000266645	1.69387e-05	0.0000000E+000	-100.07	0.000809569	0.00191882	0.00208261	67.1246	-4.14465e-09
316.316	210.256	535.148	574.97	-68.5505	46.4299	-0.00977694	0.000192302	0.940212	0.814484	1	12	0.127451	0.000221666	1.70348e-05	0.0000000E+000	-100.03	0.000636	0.00161876	0.00173922	68.5505	2.24513e-07
251.044	238.324	648.288	690.706	-69.8155	47.9409	-0.00977595	0.000173894	0.977917	0.861491	1	12	0.127066	0.000183965	1.70912e-05	0.0000000E+000	-100.07	0.000499552	0.00135888	0.00144779	69.8155	2.48691e-07
199.553	270.964	785.025	830.473	-70.957	49.4652	-0.00977338	0.000188906	1.01596	0.907808	1	12	0.126805	0.00015269	1.73326e-05	0.0000000E+000	-100.062	0.000392881	0.00113824	0.00120413	70.957	3.28754e-08
158.428	309.336	952.152	1001.14	-72.002	50.9997	-0.00976531	0.000169043	1.05507	0.954341	1	12	0.126627	0.000126483	1.73811e-05	0.0000000E+000	-100.054	0.000308632	0.000949984	0.000998861	72.002	1.06109e-07
125.846	353.963	1155.79	1208.78	-72.9727	52.5084	-0.00976473	0.000175906	1.09421	1.00039	1	12	0.12651	0.00010466	1.74525e-05	0.0000000E+000	-100.118	0.00024225	0.000791018	0.000827282	72.9727	1.34109e-07
100.032	406.171	1403.91	1461.49	-73.8641	54.0137	-0.00976745	0.000161732	1.13329	1.04576	1	12	0.126437	8.65128e-05	1.76394e-05	0.0000000E+000	-100.078	0.00019016	0.000657279	0.000684235	73.8641	4.06716e-08
79.4155	467.774	1709.34	1772.19	-74.6953	55.5452	-0.00977403	0.000194014	1.17243	1.09075	1	12	0.126391	7.1319e-05	1.7737e-05	0.0000000E+000	-100.102	0.000148942	0.000544263	0.000564274	74.6953	1.21351e-07
63.0823	538.973	2083.27	2151.86	-75.4948	57.0768	-0.00976686	0.000185658	1.21106	1.13509	1	12	0.126354	5.87183e-05	1.77758e-05	0.0000000E+000	-100.11	0.000116396	0.000449901	0.000464714	75.4948	3.56587e-08
50.1444	623.069	2543.92	2619.12	-76.2378	58.8282	-0.00976337	2.2182e-05	1.24765	1.17704	1	13	0.126717	4.83814e-05	1.78422e-05	0.0000000E+000	-100.086	9.08294e-05	0.000370847	0.000381808	76.2378	5.68943e-08
39.8089	723.043	3110.2	3193.14	-76.9126	60.3547	-0.00976605	2.06959e-05	1.28544	1.21953	1	13	0.126561	3.96351e-05	1.78177e-05	0.0000000E+000	-100.078	7.09134e-05	0.000305037	0.000313171	76.9126	-2.85381e-08
31.6296	841.03	3807.2	3898.99	-77.5431	61.8295	-0.00976602	1.57829e-05	1.32166	1.26017	1	13	0.126467	3.24359e-05	1.78969e-05	0.0000000E+000	-100.086	5.53232e-05	0.000250439	0.000256477	77.5431	4.25344e-08