File: data/DE_40_13_60.mpt
EC-Lab ASCII FILE
Nb header lines : 75

Potentio Electrochemical Impedance Spectroscopy

Run on channel : 1 (SN 20909)
User :
CE vs. WE compliance from -10 V to 10 V
Electrode connection : standard
Ewe ctrl range : min = -10.00 V, max = 10.00 V
Safety Limits :
	Do not start on E overload
Acquisition started on : 01/24/2020 09:56:07
Technique started on : 01/24/2020 09:56:08
Saved on :
	File : DE_40_13_60.mpr
	Directory : P:\Chemistry\Data\VMP3\Kyler\DOE\DE_40\2ND 60C\
	Host : 10.0.4.99
Device : VMP3 (SN 0183)
Address : USB
EC-Lab for windows v11.33 (software)
Internet server v11.32 (firmware)
Command interpretor v11.33 (firmware)
Electrode material :
Initial state :
Electrolyte :
Comments :
Electrode surface area : 0.001 cm²
Characteristic mass : 0.001 g
Equivalent Weight : 0.000 g/eq.
Density : 0.000 g/cm3
Record Analogic IN 1
Cycle Definition : Charge/Discharge alternance
External device configuration :
   device type : Thermostat
   device name : Other
   Analog OUT :
      mode : E/V
      unit : T/°C
      max : 400.000 at 5.000 V
      min : -100.000 at 0.000 V
      current : 0.000
   Analog IN 1 :
      unit : T/°C
      max : 400.000 at 5.000 V
      min : -100.000 at 0.000 V
Mode                Single sine
E (V)               0.0000
vs.                 Eoc
tE (h:m:s)          0:00:0.0000
record              0
dI                  1.000
unit dI             mA
dt (s)              0.000
fi                  1.000
unit fi             MHz
ff                  1.000
unit ff             Hz
Nd                  20
Points              per decade
spacing             Logarithmic
Va (mV)             128.0
pw                  0.50
Na                  3
corr                0
E range min (V)     -10.000
E range max (V)     10.000
I Range             Auto
Bandwidth           5
nc cycles           0
goto Ns'            0
nr cycles           0
inc. cycle          1

freq/Hz	Re(Z)/Ohm	-Im(Z)/Ohm	|Z|/Ohm	Phase(Z)/deg	time/s	<Ewe>/V	<I>/mA	Cs/µF	Cp/µF	cycle number	I Range	|Ewe|/V	|I|/A	(Q-Qo)/mA.h	Analog OUT/V	Analog IN 1/V	Re(Y)/Ohm-1	Im(Y)/Ohm-1	|Y|/Ohm-1	Phase(Y)/deg	dq/mA.h
1.00002e+06	49.4869	39.1535	63.1026	-38.3506	1.74849	-0.182713	0.00277141	0.00406483	0.0015649	1	11	0.00150931	2.39184e-05	7.107e-07	0.0000000E+000	-100.086	0.0124278	0.00983275	0.0158472	38.3506	7.107e-07
794333	56.5732	30.8716	64.4483	-28.621	2.94049	-0.181751	0.00275648	0.00649021	0.0014892	1	11	0.00357398	5.54549e-05	1.62801e-06	0.0000000E+000	-100.046	0.0136203	0.00743252	0.0155163	28.621	4.75655e-07
630957	62.707	25.9079	67.8483	-22.4484	4.13248	-0.180938	0.00277962	0.00973617	0.00141963	1	11	0.00745029	0.000109808	2.48558e-06	0.0000000E+000	-100.07	0.0136219	0.00562801	0.0147388	22.4484	3.98727e-07
501206	67.3332	22.2602	70.9174	-18.2937	5.32548	-0.180315	0.00269825	0.0142651	0.00140549	1	11	0.0134788	0.000190064	3.0699e-06	0.0000000E+000	-100.062	0.0133882	0.00442612	0.0141009	18.2937	3.61339e-07
398103	70.736	18.9835	73.2391	-15.0226	6.51748	-0.179902	0.00270143	0.0210595	0.00141487	1	11	0.0218033	0.0002977	3.9494e-06	0.0000000E+000	-100.078	0.0131873	0.00353909	0.0136539	15.0226	4.63849e-07
316230	73.1182	15.9733	74.8426	-12.3232	7.70849	-0.179724	0.00274343	0.031508	0.00143521	1	11	0.0327225	0.000437218	4.62648e-06	0.0000000E+000	-100.086	0.0130535	0.00285166	0.0133614	12.3232	5.48931e-07
251188	74.6385	13.2748	75.8098	-10.0849	8.89948	-0.179662	0.00256258	0.0477302	0.00146352	1	11	0.0467159	0.000616224	4.81882e-06	0.0000000E+000	-100.078	0.0129871	0.00230981	0.0131909	10.0849	6.66033e-07
199544	75.5225	11.0776	76.3306	-8.34461	10.0915	-0.179579	0.00280055	0.0720007	0.00151646	1	11	0.0640193	0.000838711	4.60875e-06	0.0000000E+000	-100.046	0.0129622	0.00190129	0.0131009	8.34461	6.60774e-07
158486	76.0626	9.43225	76.6451	-7.06896	11.2825	-0.179518	0.0028194	0.106467	0.00161241	1	11	0.0844837	0.00110227	6.5063e-06	0.0000000E+000	-100.102	0.012948	0.00160563	0.0130471	7.06896	-1.80856e-07
125909	76.4336	8.23603	76.876	-6.15013	12.4755	-0.179492	0.0028894	0.153477	0.00176156	1	11	0.108162	0.00140697	9.03126e-06	0.0000000E+000	-100.038	0.0129331	0.00139359	0.013008	6.15013	1.46749e-06
100004	76.7338	7.40839	77.0906	-5.51462	13.3955	-0.179492	0.00267796	0.214823	0.00198392	1	11	0.136012	0.00176431	9.31407e-06	0.0000000E+000	-100.078	0.0129117	0.00124658	0.0129717	5.51462	-8.38065e-07
79433.3	76.9451	6.90157	77.254	-5.12541	14.5885	-0.17935	0.00290695	0.290315	0.00231699	1	11	0.129578	0.0016773	1.57465e-05	0.0000000E+000	-100.046	0.0128926	0.00115639	0.0129443	5.12541	1.83318e-06
63093.8	77.0986	6.69888	77.389	-4.9658	15.7805	-0.179304	0.00281438	0.376558	0.00282147	1	11	0.129615	0.00167485	1.56435e-05	0.0000000E+000	-100.07	0.0128732	0.00111852	0.0129217	4.9658	1.31537e-06
50122.5	77.2131	6.80141	77.5121	-5.03397	16.9735	-0.179259	0.00277351	0.466862	0.00359457	1	11	0.129467	0.00167028	1.61447e-05	0.0000000E+000	-100.086	0.0128514	0.00113203	0.0129012	5.03397	-6.68338e-07
39814.1	77.3213	7.22795	77.6583	-5.34046	18.0285	-0.179225	0.0029398	0.553055	0.00479096	1	11	0.140719	0.00181203	2.12613e-05	0.0000000E+000	-99.9898	0.012821	0.0011985	0.0128769	5.34046	1.74182e-06
31621.1	77.4344	8.00078	77.8466	-5.89906	19.0845	-0.179205	0.00296388	0.629086	0.00664501	1	11	0.140345	0.00180284	2.19721e-05	0.0000000E+000	-100.078	0.0127778	0.00132024	0.0128458	5.89906	1.81899e-06
25116.9	77.5674	9.14623	78.1047	-6.72489	20.1405	-0.179196	0.00285824	0.692806	0.00950039	1	11	0.138368	0.00177157	2.62064e-05	0.0000000E+000	-100.078	0.0127152	0.0014993	0.0128033	6.72489	1.63159e-06
19948.8	77.7369	10.7253	78.4733	-7.85543	21.1965	-0.179174	0.0029314	0.743868	0.0138953	1	11	0.136224	0.00173593	2.41811e-05	0.0000000E+000	-100.086	0.0126236	0.00174166	0.0127432	7.85543	-6.29069e-07
15847.7	77.9541	12.8084	78.9993	-9.33073	22.2525	-0.17916	0.00295884	0.784078	0.0206112	1	11	0.133971	0.00169585	2.43297e-05	0.0000000E+000	-100.11	0.0124909	0.00205234	0.0126583	9.33073	-6.2994e-07
12590.9	78.2518	15.4776	79.7678	-11.1883	23.3085	-0.179156	0.00288344	0.81669	0.0307477	1	11	0.129379	0.00162195	2.81083e-05	0.0000000E+000	-100.078	0.0122981	0.00243248	0.0125364	11.1883	2.27633e-06
10002.2	78.6668	18.8607	80.8962	-13.4824	24.2275	-0.179151	0.00290695	0.843657	0.045859	1	11	0.134156	0.00165837	3.12128e-05	0.0000000E+000	-100.062	0.0120209	0.00288205	0.0123615	13.4824	1.84682e-06
7944	79.2214	23.1074	82.5226	-16.261	25.236	-0.179126	0.00310497	0.867021	0.0679808	1	11	0.137269	0.00166341	3.22319e-05	0.0000000E+000	-100.126	0.0116331	0.00339317	0.0121179	16.261	6.19658e-07
6307.73	79.9582	28.399	84.8518	-19.5537	26.4466	-0.179102	0.00309788	0.888472	0.099524	1	11	0.139099	0.00163932	3.33052e-05	0.0000000E+000	-100.094	0.0111056	0.0039444	0.0117853	19.5537	-8.85824e-07
5011.6	80.9395	34.9229	88.1522	-23.3387	27.9077	-0.179109	0.0030165	0.909356	0.142721	1	11	0.139989	0.00158804	3.26703e-05	0.0000000E+000	-100.062	0.0104158	0.00449411	0.011344	23.3387	-4.45164e-07
3981.27	82.2378	42.9419	92.7743	-27.5721	29.4277	-0.179092	0.00314322	0.93093	0.199445	1	11	0.140221	0.00151143	3.33402e-05	0.0000000E+000	-100.046	0.00955469	0.00498914	0.0107788	27.5721	1.35155e-06
3161.01	83.9591	52.7914	99.1769	-32.1607	30.9467	-0.179088	0.00317943	0.953742	0.270232	1	11	0.140036	0.00141198	3.31004e-05	0.0000000E+000	-100.062	0.00853585	0.00536713	0.010083	32.1607	-1.60137e-07
2510.8	86.1823	64.7769	107.812	-36.9295	32.4667	-0.179098	0.00318726	0.97856	0.353259	1	11	0.139586	0.00129472	3.30157e-05	0.0000000E+000	-100.062	0.00741453	0.00557296	0.0092754	36.9295	4.08948e-07
1995.64	89.0049	79.3162	119.218	-41.7056	33.9867	-0.179099	0.00302096	1.00549	0.445058	1	11	0.13905	0.00116635	3.44704e-05	0.0000000E+000	-100.046	0.00626225	0.00558056	0.00838799	41.7056	-1.25794e-07
1585.51	92.5129	96.9995	134.043	-46.3562	35.5067	-0.179086	0.0031684	1.03486	0.541917	1	11	0.138505	0.00103329	3.68673e-05	0.0000000E+000	-100.054	0.00514889	0.0053986	0.00746029	46.3562	8.33341e-07
1258.79	96.8085	118.547	153.053	-50.7641	37.028	-0.179098	0.00313667	1.06653	0.639841	1	11	0.138021	0.000901785	3.92866e-05	0.0000000E+000	-100.07	0.00413264	0.00506064	0.00653367	50.7641	1.02342e-06
1000.32	101.933	144.652	176.96	-54.8286	38.5457	-0.179082	0.00319826	1.09991	0.734952	1	11	0.137616	0.000777671	4.12494e-05	0.0000000E+000	-100.062	0.00325512	0.00461932	0.00565101	54.8286	1.38294e-06
794.238	108.003	176.584	206.994	-58.5491	40.064	-0.179094	0.00315533	1.1348	0.825859	1	11	0.137301	0.000663308	4.27841e-05	0.0000000E+000	-100.118	0.0025207	0.00412132	0.00483106	58.5491	2.43435e-07
631.01	115.102	215.536	244.345	-61.8965	41.5844	-0.179087	0.00315197	1.17021	0.910539	1	11	0.137067	0.000560957	4.49592e-05	0.0000000E+000	-99.9978	0.00192787	0.00361006	0.00409258	61.8965	1.01053e-06
501.444	123.316	263.147	290.608	-64.8913	43.0982	-0.179088	0.00318948	1.20614	0.988964	1	11	0.136905	0.0004711	4.6476e-05	0.0000000E+000	-100.102	0.00146017	0.0031159	0.00344106	64.8913	1.01761e-06
398.089	132.833	322.017	348.338	-67.5838	44.8677	-0.179094	0.00121844	1.24154	1.061	1	12	0.13909	0.000399296	4.69905e-05	0.0000000E+000	-100.046	0.00109472	0.00265385	0.00287078	67.5838	1.45076e-07
316.316	143.767	394.231	419.628	-69.9642	46.3849	-0.179099	0.00117476	1.27629	1.12648	1	12	0.138243	0.000329441	4.74202e-05	0.0000000E+000	-100.038	0.000816455	0.00223884	0.00238306	69.9642	-6.54232e-08
251.044	156.389	483.9	508.544	-72.09	47.8969	-0.179092	0.00116703	1.31013	1.18623	1	12	0.137665	0.000270705	4.80122e-05	0.0000000E+000	-100.054	0.000604712	0.00187111	0.0019664	72.09	1.22873e-07
199.553	170.861	594.047	618.13	-73.9536	49.4202	-0.17908	0.00116916	1.34258	1.24	1	12	0.137277	0.000222084	4.83443e-05	0.0000000E+000	-100.07	0.000447181	0.00155475	0.00161778	73.9536	2.06635e-07
158.428	187.75	731.356	755.07	-75.6022	50.9547	-0.179087	0.00116845	1.37359	1.28867	1	12	0.137018	0.000181464	4.88915e-05	0.0000000E+000	-100.102	0.00032931	0.00128279	0.00132438	75.6022	1.50504e-07
125.846	207.518	901.292	924.874	-77.0339	52.4634	-0.179086	0.00117603	1.40319	1.33255	1	12	0.136848	0.000147964	4.94028e-05	0.0000000E+000	-100.078	0.000242601	0.00105366	0.00108123	77.0339	1.14883e-07
100.032	230.666	1111.74	1135.42	-78.2785	53.9687	-0.179096	0.00117832	1.43112	1.37206	1	12	0.136736	0.000120428	4.9728e-05	0.0000000E+000	-100.11	0.000178925	0.000862367	0.000880733	78.2785	2.4093e-07
79.4155	258.538	1374.79	1398.89	-79.3495	55.4992	-0.179086	0.00118862	1.45774	1.40794	1	12	0.136666	9.76959e-05	5.02171e-05	0.0000000E+000	-100.078	0.000132117	0.000702539	0.000714854	79.3495	1.49007e-07
63.0823	292.08	1701.13	1726.02	-80.2574	57.0308	-0.179082	0.0011876	1.48312	1.44065	1	12	0.136617	7.91514e-05	5.07919e-05	0.0000000E+000	-100.062	9.80419e-05	0.000571012	0.000579368	80.2574	2.79031e-07
50.1444	332.861	2104.85	2131.01	-81.0137	58.5312	-0.179095	0.00117869	1.50791	1.47112	1	12	0.136587	6.40951e-05	5.13204e-05	0.0000000E+000	-100.078	7.32981e-05	0.000463502	0.000469262	81.0137	2.61262e-07
39.8089	383.914	2610.65	2638.73	-81.6342	60.0577	-0.179087	0.00117201	1.53141	1.49899	1	12	0.136571	5.17565e-05	5.17677e-05	0.0000000E+000	-100.03	5.51371e-05	0.000374938	0.00037897	81.6342	1.7421e-07
31.6296	446.336	3237.45	3268.07	-82.1503	61.7804	-0.179082	0.00100521	1.55426	1.52527	1	13	0.136763	4.18482e-05	5.22913e-05	0.0000000E+000	-100.102	4.17907e-05	0.000303124	0.000305991	82.1503	1.70367e-07
28.1701	483.303	3608.5	3640.73	-82.3715	62.5858	-0.179087	0.00101437	1.56569	1.5381	1	13	0.136718	3.75525e-05	5.24283e-05	0.0000000E+000	-100.078	3.64623e-05	0.00027224	0.000274671	82.3715	1.37042e-07