File: data/DE_49_3_30.mpt
EC-Lab ASCII FILE
Nb header lines : 75

Potentio Electrochemical Impedance Spectroscopy

Run on channel : 3 (SN 20921)
User :
CE vs. WE compliance from -10 V to 10 V
Electrode connection : standard
Ewe ctrl range : min = -10.00 V, max = 10.00 V
Safety Limits :
	Do not start on E overload
Acquisition started on : 01/22/2020 09:35:42
Technique started on : 01/22/2020 09:35:44
Saved on :
	File : DE_49_3_30.mpr
	Directory : P:\Chemistry\Data\VMP3\Kyler\DOE\DE_49\30C\
	Host : 10.0.4.99
Device : VMP3 (SN 0183)
Address : USB
EC-Lab for windows v11.33 (software)
Internet server v11.32 (firmware)
Command interpretor v11.33 (firmware)
Electrode material :
Initial state :
Electrolyte :
Comments :
Electrode surface area : 0.001 cm²
Characteristic mass : 0.001 g
Equivalent Weight : 0.000 g/eq.
Density : 0.000 g/cm3
Record Analogic IN 1
Cycle Definition : Charge/Discharge alternance
External device configuration :
   device type : Thermostat
   device name : Other
   Analog OUT :
      mode : E/V
      unit : T/°C
      max : 400.000 at 5.000 V
      min : -100.000 at 0.000 V
      current : 0.000
   Analog IN 1 :
      unit : T/°C
      max : 400.000 at 5.000 V
      min : -100.000 at 0.000 V
Mode                Single sine
E (V)               0.0000
vs.                 Eoc
tE (h:m:s)          0:00:0.0000
record              0
dI                  1.000
unit dI             mA
dt (s)              0.000
fi                  1.000
unit fi             MHz
ff                  1.000
unit ff             Hz
Nd                  20
Points              per decade
spacing             Logarithmic
Va (mV)             128.0
pw                  0.50
Na                  3
corr                0
E range min (V)     -10.000
E range max (V)     10.000
I Range             Auto
Bandwidth           5
nc cycles           0
goto Ns'            0
nr cycles           0
inc. cycle          1

freq/Hz	Re(Z)/Ohm	-Im(Z)/Ohm	|Z|/Ohm	Phase(Z)/deg	time/s	<Ewe>/V	<I>/mA	Cs/µF	Cp/µF	cycle number	I Range	|Ewe|/V	|I|/A	(Q-Qo)/mA.h	Analog OUT/V	Analog IN 1/V	Re(Y)/Ohm-1	Im(Y)/Ohm-1	|Y|/Ohm-1	Phase(Y)/deg	dq/mA.h
1.00002e+06	42.3767	-11.8002	43.989	15.5604	2.38449	-0.00317922	-0.052298	-0.0134872	-0.000970545	1	10	0.000109576	2.49099e-06	1.03089e-05	0.0000000E+000	-100.08	0.0218998	-0.00609823	0.022733	-15.5604	1.03089e-05
794333	41.7806	-2.37797	41.8482	3.25751	3.57449	-0.00240335	-0.0334854	-0.0842582	-0.000272063	1	10	0.000874681	2.09013e-05	-2.0793e-06	0.0000000E+000	-100.136	0.0238573	-0.00135785	0.0238959	-3.25751	-5.43648e-06
630957	41.3566	-2.01038	41.4054	2.78301	4.76548	-0.00186077	-0.0205262	-0.125471	-0.000295791	1	10	0.00374809	9.05216e-05	-1.02301e-05	0.0000000E+000	-100.048	0.024123	-0.00117264	0.0241514	-2.78301	-3.65492e-06
501206	41.0421	-1.51185	41.0699	2.10962	5.95849	-0.0014575	-0.00990641	-0.210037	-0.000284619	1	10	0.00956019	0.000232779	-1.46853e-05	0.0000000E+000	-100.08	0.0243322	-0.000896313	0.0243487	-2.10962	-1.79333e-06
398103	40.8229	-1.10073	40.8378	1.54452	7.14949	-0.00131106	-0.00631428	-0.363199	-0.000263863	1	10	0.0194597	0.000476513	-1.59553e-05	0.0000000E+000	-100.112	0.0244782	-0.000660017	0.0244871	-1.54452	6.45483e-08
316230	40.6389	-0.805006	40.6468	1.13481	8.34049	-0.00131386	-0.00645222	-0.625198	-0.000245224	1	10	0.035	0.000861075	-1.96513e-05	0.0000000E+000	-100.104	0.0245973	-0.000487243	0.0246022	-1.13481	-9.19291e-07
251188	40.4578	-0.563199	40.4618	0.797542	9.53049	-0.00128976	-0.00584077	-1.12502	-0.000217969	1	10	0.0590179	0.00145861	-2.64789e-05	0.0000000E+000	-100.112	0.0247123	-0.000344011	0.0247147	-0.797542	-3.58241e-06
199544	40.2673	-0.393443	40.2693	0.559806	10.7235	-0.00128871	-0.00589667	-2.02722	-0.000193516	1	10	0.0951797	0.00236358	-3.07858e-05	0.0000000E+000	-100.056	0.0248316	-0.000242624	0.0248328	-0.559806	-3.22415e-06
158486	40.0636	-0.263079	40.0645	0.376229	11.7785	-0.00119138	-0.00370445	-3.81718	-0.000164587	1	10	0.128913	0.00321763	-3.17805e-05	0.0000000E+000	-100.08	0.0249592	-0.000163895	0.0249597	-0.376229	1.66189e-06
125909	40.0543	-0.156589	40.0546	0.223992	12.9705	-0.00114195	-0.00263446	-8.07239	-0.000123372	1	10	0.130394	0.00325539	-4.23354e-05	0.0000000E+000	-100.088	0.0249657	-9.76012e-05	0.0249659	-0.223992	-3.59728e-06
100004	40.081	-0.0753176	40.0811	0.107666	14.1615	-0.00112259	-0.00234739	-21.1304	-7.46141e-05	1	10	0.129802	0.00323848	-3.33851e-05	0.0000000E+000	-100.104	0.0249494	-4.68832e-05	0.0249494	-0.107666	5.73809e-06
79433.3	40.1024	-0.00808874	40.1024	0.0115567	15.3515	-0.00108153	-0.00094	-247.706	-1.00776e-05	1	10	0.129398	0.00322669	-3.30893e-05	0.0000000E+000	-100.12	0.0249362	-5.02968e-06	0.0249362	-0.0115567	4.45318e-06
63093.8	40.14	0.0330144	40.14	-0.0471248	16.4065	-0.00107081	-0.000936269	76.4063	5.16871e-05	1	10	0.130245	0.00324477	-3.1753e-05	0.0000000E+000	-100.128	0.0249128	2.04903e-05	0.0249128	0.0471248	6.24729e-07
50122.5	40.1329	0.0618113	40.1329	-0.0882449	17.4605	-0.00106278	-0.000231641	51.3712	0.000121858	1	10	0.129889	0.00323647	-2.94314e-05	0.0000000E+000	-100.096	0.0249172	3.83765e-05	0.0249172	0.0882449	4.7437e-06
39814.1	40.1712	0.0719053	40.1713	-0.102558	18.5145	-0.00103361	0.00058297	55.5934	0.00017812	1	10	0.129446	0.00322235	-3.16085e-05	0.0000000E+000	-100.088	0.0248934	4.45583e-05	0.0248934	0.102558	-3.88607e-07
31621.1	40.1365	0.0791484	40.1366	-0.112986	19.4345	-0.00105286	-0.000267049	63.5917	0.000247289	1	10	0.138659	0.00345468	-3.43926e-05	0.0000000E+000	-100.088	0.0249149	4.91317e-05	0.0249149	0.112986	-1.5466e-06
25116.9	40.1593	0.0803077	40.1594	-0.114576	20.4895	-0.00104701	-0.00030993	78.9036	0.000315528	1	10	0.132362	0.00329591	-3.35859e-05	0.0000000E+000	-100.096	0.0249007	4.97947e-05	0.0249008	0.114576	2.11751e-06
19948.8	40.1047	0.0758851	40.1048	-0.108413	21.4085	-0.00103376	4.42534e-05	105.135	0.000376416	1	10	0.13688	0.00341306	-3.08997e-05	0.0000000E+000	-100.088	0.0249346	4.71807e-05	0.0249347	0.108413	-4.59651e-07
15847.7	40.0623	0.0681081	40.0624	-0.0974059	22.3275	-0.00104317	-0.000151474	147.454	0.000426167	1	10	0.14	0.00349455	-3.66761e-05	0.0000000E+000	-100.152	0.0249611	4.24352e-05	0.0249611	0.0974059	-2.79945e-06
12590.9	40.1044	0.058069	40.1044	-0.0829612	23.3835	-0.00104442	-0.000466518	217.68	0.000456375	1	10	0.130171	0.00324581	-3.84133e-05	0.0000000E+000	-100.08	0.0249349	3.61044e-05	0.0249349	0.0829612	-1.63828e-06
10002.2	40.0808	0.0529001	40.0808	-0.075621	24.3025	-0.00102972	0.000159822	300.792	0.00052397	1	10	0.131417	0.00327879	-3.80978e-05	0.0000000E+000	-100.08	0.0249496	3.29294e-05	0.0249496	0.075621	-1.62734e-08
7944	40.0773	0.046983	40.0774	-0.0671683	25.311	-0.00102807	0.000445028	426.423	0.000586035	1	10	0.132218	0.00329906	-3.70466e-05	0.0000000E+000	-100.08	0.0249517	2.92511e-05	0.0249517	0.0671683	7.55807e-07
6307.73	40.0841	0.0379533	40.0841	-0.0542499	26.5226	-0.00101667	-0.00111708	664.81	0.000596006	1	10	0.132734	0.00331139	-3.80504e-05	0.0000000E+000	-100.08	0.0249475	2.36213e-05	0.0249475	0.0542499	1.87779e-06
5011.6	40.1357	0.00977325	40.1357	-0.0139518	28.2187	-0.00101631	-0.0217784	3249.41	0.000192673	1	11	0.127869	0.00318591	-4.5373e-05	0.0000000E+000	-100.072	0.0249155	6.06703e-06	0.0249155	0.0139518	-2.49002e-06
3981.27	40.1084	0.0104722	40.1084	-0.0149598	29.7377	-0.00101318	-0.0218524	3817.32	0.000260236	1	11	0.129908	0.00323892	-5.72839e-05	0.0000000E+000	-100.08	0.0249324	6.50981e-06	0.0249324	0.0149598	-6.6179e-06
3161.01	40.1115	0.0099387	40.1115	-0.0141966	31.2577	-0.00101572	-0.0217766	5065.99	0.000311018	1	11	0.131252	0.00327217	-7.11503e-05	0.0000000E+000	-100.128	0.0249305	6.17719e-06	0.0249305	0.0141966	-6.7272e-06
2510.8	40.0645	0.00640351	40.0645	-0.00915758	32.7777	-0.0010105	-0.0215669	9898.95	0.000252875	1	11	0.132138	0.00329813	-7.78023e-05	0.0000000E+000	-100.12	0.0249597	3.98931e-06	0.0249597	0.00915758	-1.9588e-06