File: data/DE_49_2_30.mpt
EC-Lab ASCII FILE
Nb header lines : 75

Potentio Electrochemical Impedance Spectroscopy

Run on channel : 2 (SN 20919)
User :
CE vs. WE compliance from -10 V to 10 V
Electrode connection : standard
Ewe ctrl range : min = -10.00 V, max = 10.00 V
Safety Limits :
	Do not start on E overload
Acquisition started on : 01/22/2020 09:35:57
Technique started on : 01/22/2020 09:35:58
Saved on :
	File : DE_49_2_30.mpr
	Directory : P:\Chemistry\Data\VMP3\Kyler\DOE\DE_49\30C\
	Host : 10.0.4.99
Device : VMP3 (SN 0183)
Address : USB
EC-Lab for windows v11.33 (software)
Internet server v11.32 (firmware)
Command interpretor v11.33 (firmware)
Electrode material :
Initial state :
Electrolyte :
Comments :
Electrode surface area : 0.001 cm²
Characteristic mass : 0.001 g
Equivalent Weight : 0.000 g/eq.
Density : 0.000 g/cm3
Record Analogic IN 1
Cycle Definition : Charge/Discharge alternance
External device configuration :
   device type : Thermostat
   device name : Other
   Analog OUT :
      mode : E/V
      unit : T/°C
      max : 400.000 at 5.000 V
      min : -100.000 at 0.000 V
      current : 0.000
   Analog IN 1 :
      unit : T/°C
      max : 400.000 at 5.000 V
      min : -100.000 at 0.000 V
Mode                Single sine
E (V)               0.0000
vs.                 Eoc
tE (h:m:s)          0:00:0.0000
record              0
dI                  1.000
unit dI             mA
dt (s)              0.000
fi                  1.000
unit fi             MHz
ff                  1.000
unit ff             Hz
Nd                  20
Points              per decade
spacing             Logarithmic
Va (mV)             128.0
pw                  0.50
Na                  3
corr                0
E range min (V)     -10.000
E range max (V)     10.000
I Range             Auto
Bandwidth           5
nc cycles           0
goto Ns'            0
nr cycles           0
inc. cycle          1

freq/Hz	Re(Z)/Ohm	-Im(Z)/Ohm	|Z|/Ohm	Phase(Z)/deg	time/s	<Ewe>/V	<I>/mA	Cs/µF	Cp/µF	cycle number	I Range	|Ewe|/V	|I|/A	(Q-Qo)/mA.h	Analog OUT/V	Analog IN 1/V	Re(Y)/Ohm-1	Im(Y)/Ohm-1	|Y|/Ohm-1	Phase(Y)/deg	dq/mA.h
1.00002e+06	-1.30761	-2.38723	2.7219	118.712	1.80149	-0.00355042	-0.971648	-0.066668	-0.0512818	1	9	0.000160098	5.88184e-05	-0.000276889	0.0000000E+000	-100.118	-0.176496	-0.322219	0.367391	-118.712	-0.000276889
794333	-0.867988	-4.04626	4.13831	102.107	2.99249	-0.00278908	-0.716062	-0.0495181	-0.0473397	1	9	0.000476304	0.000115096	-0.000524974	0.0000000E+000	-100.078	-0.0506837	-0.23627	0.241645	-102.107	-0.000115364
630957	0.922073	-4.59762	4.68917	78.6595	4.18348	-0.00224056	-0.533402	-0.054864	-0.0527426	1	9	0.00109404	0.000233312	-0.000709488	0.0000000E+000	-100.086	0.0419347	-0.209094	0.213257	-78.6595	-8.51424e-05
501206	2.06244	-3.88807	4.40122	62.0562	5.37648	-0.00187837	-0.421485	-0.0816714	-0.0637371	1	9	0.00203573	0.000462538	-0.000851348	0.0000000E+000	-100.054	0.106472	-0.200719	0.22721	-62.0562	-6.62438e-05
398103	2.59651	-3.14546	4.0787	50.4611	6.5685	-0.00170542	-0.353708	-0.127098	-0.0755901	1	9	0.00339542	0.000832477	-0.000964718	0.0000000E+000	-100.086	0.15608	-0.189078	0.245176	-50.4611	-5.43861e-05
316230	2.84599	-2.48831	3.78038	41.1639	7.75848	-0.00169768	-0.353783	-0.202262	-0.0876293	1	9	0.0053759	0.00142205	-0.00107799	0.0000000E+000	-100.11	0.199141	-0.174113	0.264523	-41.1639	-5.69662e-05
251188	2.97288	-1.96131	3.56157	33.4141	8.94948	-0.00171912	-0.365424	-0.323054	-0.0979682	1	9	0.00843917	0.00236951	-0.00118783	0.0000000E+000	-100.15	0.234366	-0.154619	0.280775	-33.4141	-5.40918e-05
199544	3.03189	-1.55944	3.40943	27.2189	10.1415	-0.00173077	-0.362495	-0.511462	-0.107001	1	9	0.0137075	0.00402048	-0.00129606	0.0000000E+000	-100.086	0.260825	-0.134155	0.293304	-27.2189	-5.20724e-05
158486	3.06246	-1.25251	3.30869	22.244	11.3325	-0.00171597	-0.360163	-0.801767	-0.114894	1	9	0.0234979	0.00710188	-0.00140181	0.0000000E+000	-100.126	0.279742	-0.114411	0.302235	-22.244	-4.65845e-05
125909	3.06884	-1.01221	3.23146	18.2543	12.5255	-0.00170316	-0.362849	-1.2488	-0.122527	1	9	0.0432343	0.0133792	-0.00152547	0.0000000E+000	-100.118	0.293884	-0.0969328	0.309457	-18.2543	-7.35204e-05
100004	3.07073	-0.822308	3.17893	14.9914	13.8525	-0.00153631	-0.287497	-1.93539	-0.129502	1	9	0.140574	0.0442205	-0.00165531	0.0000000E+000	-100.11	0.303865	-0.0813718	0.314572	-14.9914	-8.60569e-05
79433.3	3.05796	-0.658771	3.12811	12.1573	15.1805	-0.00140414	-0.251771	-3.04147	-0.134892	1	9	0.120834	0.0386284	-0.00188571	0.0000000E+000	-100.142	0.312512	-0.067324	0.319682	-12.1573	-6.21182e-05
63093.8	3.04923	-0.527016	3.09444	9.80589	16.3725	-0.00138245	-0.221493	-4.78641	-0.138833	1	9	0.128854	0.0416407	-0.00189592	0.0000000E+000	-100.086	0.318439	-0.0550378	0.323161	-9.80589	2.4024e-05
50122.5	3.04308	-0.420951	3.07206	7.87577	17.5635	-0.001328	-0.205038	-7.5432	-0.141631	1	9	0.130432	0.0424576	-0.00186975	0.0000000E+000	-100.07	0.322444	-0.0446038	0.325514	-7.87577	-2.76329e-05
39814.1	3.03877	-0.335882	3.05728	6.30743	18.6185	-0.00148736	-0.228041	-11.9014	-0.143649	1	9	0.138625	0.0453428	-0.00183785	0.0000000E+000	-100.118	0.325109	-0.035935	0.327089	-6.30743	3.72549e-06
31621.1	3.03431	-0.267451	3.04607	5.03716	19.6735	-0.00134013	-0.210691	-18.8191	-0.14508	1	9	0.136042	0.0446616	-0.00201979	0.0000000E+000	-100.102	0.327024	-0.0288246	0.328292	-5.03716	-2.94445e-05
25116.9	3.03154	-0.212901	3.039	4.01722	20.7295	-0.00133147	-0.212053	-29.7629	-0.146073	1	9	0.130663	0.0429953	-0.00211084	0.0000000E+000	-100.086	0.328247	-0.0230524	0.329055	-4.01722	-7.80589e-05
19948.8	3.03036	-0.168956	3.03506	3.19119	21.6485	-0.00131817	-0.204721	-47.2206	-0.146333	1	9	0.13335	0.0439365	-0.00211448	0.0000000E+000	-100.118	0.328972	-0.0183416	0.329483	-3.19119	6.05482e-06
15847.7	3.02952	-0.134289	3.0325	2.53808	22.5675	-0.0013208	-0.206139	-74.7848	-0.146654	1	9	0.134618	0.0443918	-0.00223271	0.0000000E+000	-100.11	0.329438	-0.0146029	0.329761	-2.53808	-6.16086e-05
12590.9	3.02881	-0.106368	3.03068	2.01132	23.4855	-0.00130244	-0.199945	-118.837	-0.146383	1	9	0.13514	0.0445906	-0.002299	0.0000000E+000	-100.07	0.329756	-0.0115806	0.329959	-2.01132	-6.73709e-05
10002.2	3.02868	-0.0850392	3.02988	1.60832	24.4035	-0.0012945	-0.19349	-187.113	-0.147398	1	9	0.13537	0.0446784	-0.00243383	0.0000000E+000	-100.086	0.329916	-0.00926337	0.330046	-1.60832	-6.65556e-05
7944	3.02835	-0.0670754	3.02909	1.26885	25.412	-0.00126269	-0.181569	-298.688	-0.14646	1	9	0.135405	0.0447016	-0.00249968	0.0000000E+000	-100.102	0.330051	-0.00731035	0.330132	-1.26885	-5.99317e-05
6307.73	3.02783	-0.0529738	3.02829	1.00232	26.6235	-0.00124431	-0.191307	-476.305	-0.145751	1	9	0.135412	0.0447157	-0.00255112	0.0000000E+000	-100.07	0.330169	-0.00577651	0.330219	-1.00232	-4.59147e-05
5011.6	3.02816	-0.0421804	3.02845	0.798044	28.0847	-0.00124179	-0.189236	-752.892	-0.146054	1	9	0.135409	0.0447123	-0.00269015	0.0000000E+000	-100.062	0.33017	-0.00459906	0.330202	-0.798044	-6.85733e-05
3981.27	3.0282	-0.0334993	3.02838	0.633806	29.6037	-0.00123262	-0.181886	-1193.33	-0.14602	1	9	0.135402	0.0447109	-0.00274787	0.0000000E+000	-100.094	0.330189	-0.0036527	0.330209	-0.633806	-5.90807e-05
3161.01	3.02792	-0.026298	3.02803	0.497611	31.1227	-0.00123937	-0.19015	-1914.57	-0.14441	1	9	0.135394	0.0447135	-0.00283534	0.0000000E+000	-100.086	0.330235	-0.00286815	0.330248	-0.497611	-4.06061e-05
2510.8	3.02841	-0.0212152	3.02849	0.401372	32.6427	-0.00124015	-0.185598	-2987.86	-0.146623	1	9	0.135393	0.0447065	-0.00286188	0.0000000E+000	-100.078	0.33019	-0.0023131	0.330198	-0.401372	-2.55996e-05
2237.85	3.02795	-0.0188251	3.02801	0.35621	33.403	-0.00123846	-0.184498	-3777.91	-0.14602	1	9	0.135389	0.0447123	-0.0029411	0.0000000E+000	-100.03	0.330244	-0.00205317	0.33025	-0.35621	-7.92182e-05