File: data/DE_40_4_60.mpt
EC-Lab ASCII FILE
Nb header lines : 75

Potentio Electrochemical Impedance Spectroscopy

Run on channel : 4 (SN 4192)
User :
CE vs. WE compliance from -10 V to 10 V
Electrode connection : standard
Ewe ctrl range : min = -10.00 V, max = 10.00 V
Safety Limits :
	Do not start on E overload
Acquisition started on : 01/24/2020 09:45:03
Technique started on : 01/24/2020 09:45:04
Saved on :
	File : DE_40_4_60.mpr
	Directory : P:\Chemistry\Data\VMP3\Kyler\DOE\DE_40\2ND 60C\
	Host : 10.0.4.99
Device : VMP3 (SN 0183)
Address : USB
EC-Lab for windows v11.33 (software)
Internet server v11.32 (firmware)
Command interpretor v11.33 (firmware)
Electrode material :
Initial state :
Electrolyte :
Comments :
Electrode surface area : 0.001 cm²
Characteristic mass : 0.001 g
Equivalent Weight : 0.000 g/eq.
Density : 0.000 g/cm3
Record Analogic IN 1
Cycle Definition : Charge/Discharge alternance
External device configuration :
   device type : Thermostat
   device name : Other
   Analog OUT :
      mode : E/V
      unit : T/°C
      max : 400.000 at 5.000 V
      min : -100.000 at 0.000 V
      current : 0.000
   Analog IN 1 :
      unit : T/°C
      max : 400.000 at 5.000 V
      min : -100.000 at 0.000 V
Mode                Single sine
E (V)               0.0000
vs.                 Eoc
tE (h:m:s)          0:00:0.0000
record              0
dI                  1.000
unit dI             mA
dt (s)              0.000
fi                  1.000
unit fi             MHz
ff                  1.000
unit ff             Hz
Nd                  20
Points              per decade
spacing             Logarithmic
Va (mV)             128.0
pw                  0.50
Na                  3
corr                0
E range min (V)     -10.000
E range max (V)     10.000
I Range             Auto
Bandwidth           5
nc cycles           0
goto Ns'            0
nr cycles           0
inc. cycle          1

freq/Hz	Re(Z)/Ohm	-Im(Z)/Ohm	|Z|/Ohm	Phase(Z)/deg	time/s	<Ewe>/V	<I>/mA	Cs/µF	Cp/µF	cycle number	I Range	|Ewe|/V	|I|/A	(Q-Qo)/mA.h	Analog OUT/V	Analog IN 1/V	Re(Y)/Ohm-1	Im(Y)/Ohm-1	|Y|/Ohm-1	Phase(Y)/deg	dq/mA.h
1.00002e+06	71.1921	38.3897	80.8831	-28.3354	1.64549	-0.0538534	0.00194014	0.00414569	0.000933923	1	11	0.000612304	7.57023e-06	4.45067e-07	0.0000000E+000	-100.032	0.0108822	0.00586812	0.0123635	28.3354	4.45067e-07
707950	1.00918	2.14143	2.36731	-64.7671	3.6316	-0.0532447	0.283763	0.104982	0.0859035	1	9	3.0498e-05	1.2883e-05	2.82825e-05	0.0000000E+000	-100.024	0.180078	0.382114	0.42242	64.7671	2.71682e-05
501206	101.541	34.451	107.226	-18.7411	6.00049	-0.0530351	0.00337398	0.00921727	0.00095149	1	11	0.00687956	6.41594e-05	5.82545e-05	0.0000000E+000	-100.081	0.00883162	0.0029964	0.00932609	18.7411	5.51671e-07
354810	112.008	30.1429	115.993	-15.0622	7.78647	-0.0529506	0.00349701	0.0148813	0.00100495	1	11	0.0231333	0.000199436	5.95991e-05	0.0000000E+000	-100.153	0.008325	0.00224037	0.00862119	15.0622	8.67925e-07
251188	118.526	24.6742	121.067	-11.7596	9.57249	-0.0529402	0.00355173	0.025679	0.00106663	1	11	0.0490467	0.00040512	6.01742e-05	0.0000000E+000	-100.129	0.00808651	0.00168341	0.00825988	11.7596	1.70975e-07
177832	122.539	19.6898	124.111	-9.12836	11.3605	-0.0529136	0.00331575	0.0454537	0.00114402	1	11	0.0845542	0.00068128	6.14121e-05	0.0000000E+000	-100.04	0.00795527	0.00127827	0.00805731	9.12836	1.27217e-06
125909	124.673	15.7986	125.67	-7.22207	13.0115	-0.0529437	0.00355919	0.0800097	0.0012645	1	11	0.128299	0.00102092	6.47331e-05	0.0000000E+000	-100.145	0.00789422	0.00100036	0.00795735	7.22207	7.83818e-07
89129.3	125.861	13.1955	126.551	-5.98516	14.7985	-0.0529245	0.00341793	0.135323	0.00147129	1	11	0.129679	0.00102472	7.22855e-05	0.0000000E+000	-100.097	0.00785891	0.000823946	0.00790198	5.98516	2.62515e-06
63093.8	126.47	11.8685	127.025	-5.3612	16.5835	-0.0528788	0.00380858	0.212538	0.00185544	1	11	0.129426	0.0010189	7.40723e-05	0.0000000E+000	-100.056	0.007838	0.000735554	0.00787244	5.3612	-9.25986e-07
44666.7	126.829	11.767	127.374	-5.30066	18.2355	-0.0528878	0.00365709	0.302809	0.00258431	1	11	0.130247	0.00102256	7.37181e-05	0.0000000E+000	-100.056	0.00781734	0.000725284	0.00785092	5.30066	4.87315e-08
31621.1	127.188	12.9458	127.846	-5.81178	19.7495	-0.0528582	0.00375536	0.38879	0.00398657	1	11	0.137725	0.00107728	7.51172e-05	0.0000000E+000	-100.073	0.00778174	0.000792057	0.00782194	5.81178	5.22248e-07
22389	127.517	15.4906	128.454	-6.92628	21.2635	-0.0528479	0.003677	0.458899	0.00667353	1	11	0.14071	0.00109541	7.49288e-05	0.0000000E+000	-100.073	0.00772806	0.000938795	0.00778488	6.92628	-3.57929e-07
15847.7	128.016	19.6684	129.519	-8.73458	22.7775	-0.0528663	0.00368575	0.510607	0.0117749	1	11	0.136195	0.00105155	7.68937e-05	0.0000000E+000	-100.089	0.00763136	0.00117248	0.0077209	8.73458	-2.09234e-07
11217.7	128.788	25.8765	131.362	-11.3607	24.2925	-0.0528588	0.00377787	0.548291	0.0212755	1	11	0.130819	0.000995867	7.86389e-05	0.0000000E+000	-100.129	0.00746338	0.00149956	0.00761253	11.3607	-2.65412e-07
7944	130.176	34.6783	134.716	-14.9169	25.76	-0.0527768	0.00418137	0.577727	0.0382825	1	11	0.133843	0.000993522	7.91853e-05	0.0000000E+000	-100.121	0.00717286	0.00191082	0.00742302	14.9169	-4.55201e-08
5621.06	132.374	46.8817	140.43	-19.5022	27.6723	-0.0527544	0.00402578	0.603947	0.0673107	1	11	0.135186	0.000962655	8.10716e-05	0.0000000E+000	-100.105	0.00671243	0.00237729	0.00712097	19.5022	-1.11106e-07
3981.27	135.72	63.3124	149.761	-25.0087	29.9527	-0.0527707	0.00391151	0.631406	0.112846	1	11	0.135569	0.00090523	8.22848e-05	0.0000000E+000	-100.073	0.00605125	0.00282286	0.00667729	25.0087	6.13473e-07
2817.3	140.979	85.3545	164.804	-31.1925	32.2329	-0.052759	0.00375051	0.661853	0.177533	1	11	0.135426	0.000821737	8.44534e-05	0.0000000E+000	-100.073	0.0051906	0.00314261	0.00606781	31.1925	1.24617e-06
1995.64	148.604	114.383	187.528	-37.5862	34.5127	-0.0527527	0.00416946	0.697229	0.2594	1	11	0.135054	0.00072018	8.79338e-05	0.0000000E+000	-100.113	0.00422571	0.00325261	0.00533255	37.5862	1.18283e-06
1411.84	159.067	152.495	220.357	-43.7915	36.7932	-0.0527603	0.00414991	0.739231	0.354029	1	11	0.134645	0.000611033	9.1339e-05	0.0000000E+000	-100.064	0.00327588	0.00314053	0.0045381	43.7915	9.7304e-07
1000.32	173.01	202.184	266.103	-49.4462	39.0707	-0.0527657	0.00392899	0.786927	0.454285	1	11	0.134314	0.000504744	9.41046e-05	0.0000000E+000	-100.089	0.00244327	0.00285527	0.00375794	49.4462	8.96622e-07
707.509	191.719	268.586	329.992	-54.4804	41.6034	-0.052771	0.000406283	0.837537	0.554835	1	12	0.137778	0.00041752	9.67118e-05	0.0000000E+000	-100.089	0.00176059	0.00246647	0.00303037	54.4804	1.07749e-06
501.444	215.395	355.573	415.725	-58.7939	43.8752	-0.052777	0.000406896	0.892624	0.653002	1	12	0.136086	0.000327346	9.71108e-05	0.0000000E+000	-100.073	0.0012463	0.00205739	0.00240544	58.7939	3.48389e-07
354.66	246.035	472.124	532.386	-62.475	46.155	-0.0527666	0.000409799	0.9505	0.747502	1	12	0.135054	0.000253676	9.69151e-05	0.0000000E+000	-100.089	0.000868048	0.00166573	0.00187834	62.475	-3.1835e-08
251.044	285.204	627.462	689.238	-65.5565	48.4239	-0.0527773	0.000387072	1.01037	0.837372	1	12	0.13445	0.00019507	9.7505e-05	0.0000000E+000	-100.073	0.000600367	0.00132084	0.00145088	65.5565	3.02433e-07
177.781	335.111	835.383	900.091	-68.142	50.7163	-0.0527798	0.000406798	1.07164	0.923096	1	12	0.134099	0.000148983	9.79663e-05	0.0000000E+000	-100.081	0.000413633	0.00103113	0.001111	68.142	3.08653e-08
125.846	398.244	1114.45	1183.47	-70.3359	52.9914	-0.0527762	0.000393198	1.13481	1.0063	1	12	0.1339	0.000113142	9.82524e-05	0.0000000E+000	-100.056	0.000284339	0.000795697	0.000844975	70.3359	1.71183e-07
89.116	478.21	1491.19	1565.99	-72.2194	55.2627	-0.0527812	0.000378109	1.19766	1.08597	1	12	0.133796	8.54387e-05	9.85942e-05	0.0000000E+000	-100.121	0.000195003	0.000608071	0.000638574	72.2194	2.38684e-08
63.0823	578.647	2002.64	2084.56	-73.8838	57.5588	-0.0527778	0.000405733	1.25982	1.16275	1	12	0.133742	6.41582e-05	9.88913e-05	0.0000000E+000	-100.073	0.000133163	0.000460864	0.000479716	73.8838	8.39148e-08
44.6712	705.767	2696.43	2787.26	-75.3324	60.0752	-0.0527742	4.04904e-05	1.32131	1.23659	1	13	0.134031	4.80871e-05	9.91647e-05	0.0000000E+000	-100.081	9.08461e-05	0.000347083	0.000358775	75.3324	1.60956e-07
31.6296	865.773	3642.92	3744.39	-76.6312	62.3124	-0.0527826	3.99371e-05	1.38127	1.30742	1	13	0.133866	3.57512e-05	9.9188e-05	0.0000000E+000	-100.097	6.17508e-05	0.000259829	0.000267066	76.6312	-1.57922e-08
22.3854	1069.12	4940.94	5055.29	-77.7905	64.5604	-0.0527774	3.55676e-05	1.43895	1.37459	1	13	0.133774	2.64622e-05	9.9209e-05	0.0000000E+000	-100.024	4.18346e-05	0.000193338	0.000197813	77.7905	8.92857e-08
15.8576	1331.95	6720.92	6851.63	-78.7904	66.8879	-0.052782	3.9946e-05	1.49333	1.43689	1	13	0.133728	1.95177e-05	9.91673e-05	0.0000000E+000	-100.048	2.83727e-05	0.000143166	0.000145951	78.7904	-7.4364e-08
11.2249	1678.62	9175.84	9328.12	-79.633	69.2649	-0.0527818	4.23186e-05	1.54523	1.49519	1	13	0.133703	1.43333e-05	9.9257e-05	0.0000000E+000	-100.032	1.92915e-05	0.000105453	0.000107203	79.633	-6.74899e-09
7.93953	2154.88	12560.2	12743.7	-80.2649	71.8087	-0.0527791	3.98284e-05	1.59598	1.55035	1	13	0.133689	1.04905e-05	9.92118e-05	0.0000000E+000	-100.081	1.32688e-05	7.734e-05	7.847e-05	80.2649	-9.16578e-08
5.6205	2830.16	17240	17470.8	-80.6773	73.6726	-0.0527819	4.18416e-05	1.64251	1.59941	1	13	0.133686	7.65197e-06	9.93358e-05	0.0000000E+000	-100.129	9.27232e-06	5.64825e-05	5.72385e-05	80.6773	6.69452e-08
3.97785	3784.99	23700.6	24000.9	-80.9265	76.2082	-0.0527778	4.19663e-05	1.68816	1.64617	1	13	0.133685	5.56998e-06	9.92668e-05	0.0000000E+000	-100.024	6.57067e-06	4.11437e-05	4.16651e-05	80.9265	-3.66511e-08
2.81836	5340.24	32447.2	32883.7	-80.6539	80.0717	-0.0527708	-2.48997e-06	1.74039	1.69449	1	14	0.133695	4.06569e-06	9.92676e-05	0.0000000E+000	-100.097	4.93854e-06	3.00065e-05	3.04102e-05	80.6539	-1.05937e-07
1.99706	7442.95	44388.4	45008.1	-80.4813	84.9337	-0.0527652	4.70181e-06	1.79539	1.74629	1	14	0.133685	2.97024e-06	9.92557e-05	0.0000000E+000	-100.097	3.67421e-06	2.19123e-05	2.22182e-05	80.4813	-1.0981e-07
1.77961	8476.29	49243.2	49967.4	-80.2333	86.9518	-0.0527697	7.68031e-06	1.81614	1.76387	1	14	0.133682	2.67539e-06	9.9383e-05	0.0000000E+000	-100.056	3.39495e-06	1.9723e-05	2.00131e-05	80.2333	1.27212e-07