File: data/DE_40_5_60.mpt
EC-Lab ASCII FILE
Nb header lines : 75

Potentio Electrochemical Impedance Spectroscopy

Run on channel : 1 (SN 20909)
User :
CE vs. WE compliance from -10 V to 10 V
Electrode connection : standard
Ewe ctrl range : min = -10.00 V, max = 10.00 V
Safety Limits :
	Do not start on E overload
Acquisition started on : 01/24/2020 09:52:24
Technique started on : 01/24/2020 09:52:25
Saved on :
	File : DE_40_5_60.mpr
	Directory : P:\Chemistry\Data\VMP3\Kyler\DOE\DE_40\2ND 60C\
	Host : 10.0.4.99
Device : VMP3 (SN 0183)
Address : USB
EC-Lab for windows v11.33 (software)
Internet server v11.32 (firmware)
Command interpretor v11.33 (firmware)
Electrode material :
Initial state :
Electrolyte :
Comments :
Electrode surface area : 0.001 cm²
Characteristic mass : 0.001 g
Equivalent Weight : 0.000 g/eq.
Density : 0.000 g/cm3
Record Analogic IN 1
Cycle Definition : Charge/Discharge alternance
External device configuration :
   device type : Thermostat
   device name : Other
   Analog OUT :
      mode : E/V
      unit : T/°C
      max : 400.000 at 5.000 V
      min : -100.000 at 0.000 V
      current : 0.000
   Analog IN 1 :
      unit : T/°C
      max : 400.000 at 5.000 V
      min : -100.000 at 0.000 V
Mode                Single sine
E (V)               0.0000
vs.                 Eoc
tE (h:m:s)          0:00:0.0000
record              0
dI                  1.000
unit dI             mA
dt (s)              0.000
fi                  1.000
unit fi             MHz
ff                  1.000
unit ff             Hz
Nd                  20
Points              per decade
spacing             Logarithmic
Va (mV)             128.0
pw                  0.50
Na                  3
corr                0
E range min (V)     -10.000
E range max (V)     10.000
I Range             Auto
Bandwidth           5
nc cycles           0
goto Ns'            0
nr cycles           0
inc. cycle          1

freq/Hz	Re(Z)/Ohm	-Im(Z)/Ohm	|Z|/Ohm	Phase(Z)/deg	time/s	<Ewe>/V	<I>/mA	Cs/µF	Cp/µF	cycle number	I Range	|Ewe|/V	|I|/A	(Q-Qo)/mA.h	Analog OUT/V	Analog IN 1/V	Re(Y)/Ohm-1	Im(Y)/Ohm-1	|Y|/Ohm-1	Phase(Y)/deg	dq/mA.h
1.00002e+06	56.8628	61.6886	83.8979	-47.331	1.85048	-0.0190849	0.00311089	0.00257993	0.00139481	1	11	0.00201692	2.40402e-05	8.07478e-07	0.0000000E+000	-100.054	0.00807841	0.008764	0.0119192	47.331	8.07478e-07
707950	77.041	53.4354	93.7585	-34.7451	3.63949	-0.0177049	0.00305938	0.00420716	0.00136655	1	11	0.00722892	7.71015e-05	2.20302e-06	0.0000000E+000	-100.086	0.00876397	0.00607866	0.0106657	34.7451	4.67669e-07
501206	93.6743	47.3902	104.98	-26.835	5.42649	-0.016671	0.00316782	0.00670062	0.00136547	1	11	0.018432	0.000175577	3.74715e-06	0.0000000E+000	-100.054	0.00849985	0.00430011	0.00952567	26.835	4.61708e-07
354810	106.116	39.9857	113.4	-20.6469	7.21149	-0.0161621	0.00307078	0.0112181	0.00139477	1	11	0.0362419	0.000319593	5.16952e-06	0.0000000E+000	-100.078	0.00825196	0.00310942	0.00881835	20.6469	7.41048e-07
251188	114.274	31.9342	118.652	-15.6132	8.99748	-0.0160082	0.00312845	0.0198411	0.00143724	1	11	0.0617244	0.000520215	6.51945e-06	0.0000000E+000	-100.094	0.00811704	0.00226833	0.00842803	15.6132	5.75735e-07
177832	118.863	24.9393	121.451	-11.8497	10.7865	-0.0159121	0.0031432	0.0358862	0.00151319	1	11	0.0958192	0.000788955	6.10764e-06	0.0000000E+000	-100.054	0.00805832	0.00169076	0.00823379	11.8497	-8.24262e-07
125909	121.488	19.851	123.099	-9.28009	12.3015	-0.0158546	0.00314638	0.0636766	0.00165591	1	11	0.138425	0.0011245	7.25414e-06	0.0000000E+000	-100.046	0.00801724	0.00131001	0.00812357	9.28009	7.90538e-07
89129.3	123.047	16.4445	124.141	-7.61214	14.0885	-0.0156913	0.00309897	0.108587	0.00190542	1	11	0.129452	0.00104278	8.96366e-06	0.0000000E+000	-100.046	0.00798438	0.00106707	0.00805537	7.61214	4.60268e-07
63093.8	123.956	14.5822	124.81	-6.70948	15.8765	-0.0156101	0.00321319	0.172986	0.00236132	1	11	0.129449	0.00103716	1.31134e-05	0.0000000E+000	-100.07	0.00795728	0.0009361	0.00801216	6.70948	6.51934e-07
44666.7	124.541	14.2137	125.349	-6.51092	17.5295	-0.0155571	0.00317867	0.250686	0.00322328	1	11	0.130433	0.00104055	1.29842e-05	0.0000000E+000	-100.054	0.00792625	0.000904612	0.0079777	6.51092	-1.04245e-06
31621.1	125.015	15.3581	125.955	-7.00369	19.0445	-0.0155507	0.00309692	0.327721	0.00487247	1	11	0.137835	0.00109432	1.29458e-05	0.0000000E+000	-100.078	0.0078801	0.00096807	0.00793934	7.00369	1.2019e-06
22389	125.533	18.1129	126.833	-8.21041	20.6955	-0.01553	0.00308367	0.392462	0.00800401	1	11	0.129265	0.00101917	1.54658e-05	0.0000000E+000	-100.046	0.00780357	0.00112596	0.00788438	8.21041	-4.31446e-07
15847.7	126.301	22.79	128.341	-10.2285	22.0725	-0.0155272	0.00308554	0.440666	0.0138954	1	11	0.140462	0.00109445	1.54889e-05	0.0000000E+000	-100.086	0.00766794	0.00138362	0.00779177	10.2285	-1.72322e-07
11217.7	127.474	29.7897	130.909	-13.1535	23.5855	-0.0155131	0.00304914	0.476266	0.0246629	1	11	0.133106	0.00101679	1.72711e-05	0.0000000E+000	-100.134	0.00743849	0.00173832	0.00763891	13.1535	5.61002e-07
7944	129.365	39.7178	135.325	-17.0676	25.054	-0.0154857	0.00326955	0.504424	0.0434523	1	11	0.136162	0.00100619	1.76062e-05	0.0000000E+000	-100.07	0.00706419	0.00216886	0.00738964	17.0676	5.0052e-07
5621.06	132.305	53.4112	142.679	-21.9839	26.9663	-0.0154628	0.00317288	0.530114	0.0742873	1	11	0.137414	0.000963097	1.86988e-05	0.0000000E+000	-100.062	0.00649913	0.00262369	0.00700874	21.9839	8.44668e-08
3981.27	136.802	71.7742	154.487	-27.6841	29.2467	-0.0154646	0.00308311	0.556967	0.120221	1	11	0.137639	0.000890939	2.19111e-05	0.0000000E+000	-100.046	0.00573201	0.00300734	0.00647302	27.6841	1.41603e-06
2817.3	143.569	96.1731	172.804	-33.8171	31.5269	-0.0154668	0.00308647	0.5874	0.181942	1	11	0.137344	0.000794797	2.53511e-05	0.0000000E+000	-100.086	0.00480786	0.00322067	0.0057869	33.8171	1.18904e-06
1995.64	153.317	127.972	199.707	-39.8513	33.8067	-0.0154637	0.0030999	0.623194	0.255897	1	11	0.136877	0.000685388	2.66731e-05	0.0000000E+000	-100.038	0.00384418	0.00320869	0.00500733	39.8513	1.20686e-06
1411.84	166.878	169.472	237.842	-45.4419	36.0882	-0.0154589	0.00312733	0.665178	0.337719	1	11	0.136437	0.000573646	2.77799e-05	0.0000000E+000	-100.086	0.00294999	0.00299585	0.00420447	45.4419	4.88031e-07
1000.32	184.948	223.01	289.723	-50.3302	38.3657	-0.0154707	0.00305062	0.713437	0.422707	1	11	0.13609	0.000469725	2.94385e-05	0.0000000E+000	-100.07	0.00220335	0.0026568	0.00345157	50.3302	4.69579e-07
707.509	208.809	293.002	359.793	-54.5243	40.8974	-0.0154686	0.00122066	0.767747	0.509158	1	12	0.139326	0.000387239	3.09804e-05	0.0000000E+000	-100.062	0.00161303	0.00226342	0.00277938	54.5243	3.1241e-07
501.444	239.2	383.733	452.181	-58.0626	43.1692	-0.0154718	0.00124186	0.82712	0.595665	1	12	0.13773	0.000304589	3.19344e-05	0.0000000E+000	-100.102	0.00116987	0.00187674	0.0022115	58.0626	9.60633e-08
354.66	277.968	503.362	575.013	-61.0915	45.4489	-0.0154686	0.00125039	0.891514	0.683178	1	12	0.136767	0.00023785	3.30811e-05	0.0000000E+000	-100.102	0.000840698	0.00152239	0.00173909	61.0915	4.14208e-07
251.044	326.571	660.733	737.033	-63.6989	47.7179	-0.0154686	0.00122719	0.959496	0.771121	1	12	0.136206	0.000184804	3.36406e-05	0.0000000E+000	-100.078	0.000601179	0.00121633	0.00135679	63.6989	1.2039e-07
177.781	386.878	869.007	951.235	-66.0016	50.0102	-0.0154724	0.00123329	1.03017	0.859769	1	12	0.135885	0.000142851	3.41034e-05	0.0000000E+000	-100.062	0.000427562	0.00096039	0.00105126	66.0016	2.36992e-07
125.846	461.301	1147.14	1236.42	-68.0934	52.2854	-0.0154709	0.00124002	1.10247	0.949004	1	12	0.135705	0.000109757	3.48991e-05	0.0000000E+000	-100.094	0.000301755	0.000750389	0.000808789	68.0934	2.12855e-07
89.116	552.696	1520.29	1617.64	-70.0215	54.5577	-0.0154658	0.00123687	1.17473	1.03759	1	12	0.1356	8.38259e-05	3.55583e-05	0.0000000E+000	-100.062	0.000211214	0.000580982	0.000618184	70.0215	2.73266e-07
63.0823	664.227	2023.2	2129.44	-71.8247	56.8538	-0.0154674	0.00124407	1.24702	1.12569	1	12	0.135546	6.36532e-05	3.63365e-05	0.0000000E+000	-100.054	0.000146482	0.000446176	0.000469607	71.8247	2.48025e-07
44.6712	804.042	2708.12	2824.96	-73.4638	59.3712	-0.0154629	0.00106289	1.3156	1.20903	1	13	0.135842	4.80864e-05	3.71582e-05	0.0000000E+000	-100.118	0.000100752	0.000339346	0.000353987	73.4638	2.22917e-07
31.6296	977.818	3641.55	3770.54	-74.9696	61.6085	-0.0154614	0.00105662	1.38179	1.28886	1	13	0.135672	3.59819e-05	3.77628e-05	0.0000000E+000	-100.094	6.87781e-05	0.00025614	0.000265214	74.9696	1.79352e-07
22.3854	1199.8	4921.78	5065.91	-76.3	63.8564	-0.0154698	0.00104928	1.44455	1.36352	1	13	0.135581	2.67633e-05	3.84547e-05	0.0000000E+000	-100.094	4.67512e-05	0.000191782	0.000197398	76.3	1.65885e-07
15.8576	1487.79	6673.69	6837.52	-77.4323	66.1849	-0.0154687	0.00105141	1.50389	1.43269	1	13	0.135531	1.98217e-05	3.91113e-05	0.0000000E+000	-100.062	3.18233e-05	0.000142748	0.000146252	77.4323	1.52728e-07
11.2249	1875.02	9082.48	9274	-78.3355	68.5619	-0.0154672	0.00104897	1.56112	1.4973	1	13	0.13551	1.46118e-05	3.97635e-05	0.0000000E+000	-100.07	2.18008e-05	0.000105601	0.000107828	78.3355	1.04129e-07
7.93953	2420.96	12398.8	12633	-78.9516	71.1057	-0.0154595	0.00104038	1.61676	1.55738	1	13	0.135494	1.07254e-05	4.05808e-05	0.0000000E+000	-100.078	1.51696e-05	7.76908e-05	7.91579e-05	78.9516	3.16456e-07
5.6205	3197.01	16969	17267.6	-79.3304	72.9707	-0.0154632	0.00101845	1.66874	1.61153	1	13	0.135488	7.84638e-06	4.11497e-05	0.0000000E+000	-100.062	1.07221e-05	5.69108e-05	5.7912e-05	79.3304	1.89244e-07
3.97785	4329.42	23115.6	23517.5	-79.3917	75.5062	-0.0154622	0.00105816	1.73088	1.67222	1	13	0.135484	5.76098e-06	4.18449e-05	0.0000000E+000	-100.022	7.82795e-06	4.17948e-05	4.25215e-05	79.3917	3.55289e-07
2.81836	5944.86	31488.8	32045	-79.3088	79.0046	-0.0154587	0.00104902	1.79336	1.73164	1	13	0.135483	4.22789e-06	4.28446e-05	0.0000000E+000	-100.03	5.78923e-06	3.06644e-05	3.12061e-05	79.3088	4.39514e-07
1.99706	8339.25	42904.6	43707.6	-79.0007	84.3137	-0.015458	0.00102104	1.85748	1.78986	1	14	0.135491	3.09995e-06	4.43227e-05	0.0000000E+000	-100.102	4.3653e-06	2.2459e-05	2.28793e-05	79.0007	5.76146e-07
1.41224	11744	58235.1	59407.4	-78.5983	91.1201	-0.0154536	0.00100625	1.93521	1.85958	1	14	0.135487	2.28064e-06	4.62889e-05	0.0000000E+000	-100.078	3.32763e-06	1.65007e-05	1.68329e-05	78.5983	8.33031e-07
1.00006	16974.1	78727.2	80536.3	-77.8329	100.664	-0.0154555	0.00101718	2.02147	1.93167	1	14	0.135486	1.6823e-06	4.8862e-05	0.0000000E+000	-100.054	2.617e-06	1.21378e-05	1.24168e-05	77.8329	8.88843e-07