File: data/DE_40_14_60.mpt
EC-Lab ASCII FILE
Nb header lines : 75

Potentio Electrochemical Impedance Spectroscopy

Run on channel : 2 (SN 20919)
User :
CE vs. WE compliance from -10 V to 10 V
Electrode connection : standard
Ewe ctrl range : min = -10.00 V, max = 10.00 V
Safety Limits :
	Do not start on E overload
Acquisition started on : 01/24/2020 09:55:50
Technique started on : 01/24/2020 09:55:51
Saved on :
	File : DE_40_14_60.mpr
	Directory : P:\Chemistry\Data\VMP3\Kyler\DOE\DE_40\2ND 60C\
	Host : 10.0.4.99
Device : VMP3 (SN 0183)
Address : USB
EC-Lab for windows v11.33 (software)
Internet server v11.32 (firmware)
Command interpretor v11.33 (firmware)
Electrode material :
Initial state :
Electrolyte :
Comments :
Electrode surface area : 0.001 cm²
Characteristic mass : 0.001 g
Equivalent Weight : 0.000 g/eq.
Density : 0.000 g/cm3
Record Analogic IN 1
Cycle Definition : Charge/Discharge alternance
External device configuration :
   device type : Thermostat
   device name : Other
   Analog OUT :
      mode : E/V
      unit : T/°C
      max : 400.000 at 5.000 V
      min : -100.000 at 0.000 V
      current : 0.000
   Analog IN 1 :
      unit : T/°C
      max : 400.000 at 5.000 V
      min : -100.000 at 0.000 V
Mode                Single sine
E (V)               0.0000
vs.                 Eoc
tE (h:m:s)          0:00:0.0000
record              0
dI                  1.000
unit dI             mA
dt (s)              0.000
fi                  1.000
unit fi             MHz
ff                  1.000
unit ff             Hz
Nd                  20
Points              per decade
spacing             Logarithmic
Va (mV)             128.0
pw                  0.50
Na                  3
corr                0
E range min (V)     -10.000
E range max (V)     10.000
I Range             Auto
Bandwidth           5
nc cycles           0
goto Ns'            0
nr cycles           0
inc. cycle          1

freq/Hz	Re(Z)/Ohm	-Im(Z)/Ohm	|Z|/Ohm	Phase(Z)/deg	time/s	<Ewe>/V	<I>/mA	Cs/µF	Cp/µF	cycle number	I Range	|Ewe|/V	|I|/A	(Q-Qo)/mA.h	Analog OUT/V	Analog IN 1/V	Re(Y)/Ohm-1	Im(Y)/Ohm-1	|Y|/Ohm-1	Phase(Y)/deg	dq/mA.h
1.00002e+06	55.9174	19.4487	59.2031	-19.1782	1.64647	0.00400709	0.00151139	0.00818318	0.000883106	1	11	0.000990478	1.67302e-05	3.16321e-07	0.0000000E+000	-100.11	0.0159536	0.00554882	0.016891	19.1782	3.16321e-07
794333	58.8129	15.0315	60.7034	-14.3368	2.83849	0.00477108	0.00145768	0.0133296	0.000817321	1	11	0.00273955	4.51301e-05	8.27467e-07	0.0000000E+000	-100.142	0.0159605	0.0040792	0.0164735	14.3368	3.28856e-07
630957	62.81	12.6565	64.0724	-11.3928	4.03047	0.00532198	0.00144504	0.01993	0.000777663	1	11	0.00622751	9.71949e-05	1.16879e-06	0.0000000E+000	-100.046	0.0152998	0.00308298	0.0156073	11.3928	1.6374e-07
501206	65.9583	11.0434	66.8764	-9.50483	5.22048	0.00568136	0.00145322	0.0287543	0.000784078	1	11	0.011825	0.000176819	2.17933e-06	0.0000000E+000	-100.11	0.0147477	0.0024692	0.014953	9.50483	7.09223e-07
398103	68.1588	9.66478	68.8406	-8.07062	6.41148	0.00584485	0.00150173	0.0413649	0.000815318	1	11	0.0197078	0.000286282	2.20664e-06	0.0000000E+000	-100.07	0.0143824	0.0020394	0.0145263	8.07062	2.74815e-07
316230	69.6514	8.31368	70.1458	-6.8067	7.6015	0.00584057	0.00148296	0.0605374	0.000850368	1	11	0.0301683	0.00043008	1.70758e-06	0.0000000E+000	-100.078	0.0141555	0.00168962	0.014256	6.8067	-7.31026e-07
251188	70.5781	7.14006	70.9383	-5.7767	8.79147	0.00583661	0.0015508	0.0887401	0.000899005	1	11	0.0436098	0.000614756	1.24796e-06	0.0000000E+000	-100.11	0.0140252	0.00141886	0.0140968	5.7767	-1.07421e-06
199544	71.165	6.15358	71.4305	-4.94203	9.98248	0.00582125	0.00138652	0.129615	0.000961929	1	11	0.0603251	0.000844529	2.98416e-06	0.0000000E+000	-100.094	0.0139476	0.00120604	0.0139996	4.94203	1.51319e-06
158486	71.5337	5.41629	71.7385	-4.32998	11.1735	0.00584131	0.00144748	0.185408	0.00105688	1	11	0.0800283	0.00111556	5.105e-06	0.0000000E+000	-100.11	0.0138997	0.00105244	0.0139395	4.32998	2.14547e-06
125909	71.773	4.91791	71.9413	-3.9198	12.3665	0.00584159	0.00138784	0.257029	0.00120112	1	11	0.102719	0.00142782	7.71095e-06	0.0000000E+000	-100.062	0.0138677	0.00095022	0.0139002	3.9198	1.56704e-06
100004	71.9494	4.63693	72.0987	-3.68744	13.2855	0.00585052	0.00138209	0.343221	0.00141964	1	11	0.129236	0.00179248	8.78889e-06	0.0000000E+000	-100.118	0.0138412	0.000892022	0.0138699	3.68744	1.66947e-06
79433.3	72.0714	4.56148	72.2156	-3.62149	14.4775	0.00595293	0.00166792	0.43925	0.00175252	1	11	0.129634	0.00179509	1.56377e-05	0.0000000E+000	-100.086	0.0138198	0.00087467	0.0138474	3.62149	3.13298e-06
63093.8	72.1634	4.69959	72.3162	-3.72609	15.6685	0.00599381	0.00157648	0.536752	0.00226684	1	11	0.129562	0.00179161	1.89207e-05	0.0000000E+000	-100.134	0.0137989	0.000898646	0.0138282	3.72609	1.92124e-06
50122.5	72.2348	5.05268	72.4113	-4.00121	16.8605	0.00603149	0.00143543	0.628443	0.00305982	1	11	0.129426	0.00178737	2.15064e-05	0.0000000E+000	-100.086	0.0137763	0.000963626	0.01381	4.00121	1.52245e-06
39814.1	72.3068	5.64894	72.5271	-4.46714	18.0525	0.00609942	0.00180489	0.707647	0.00429289	1	11	0.12931	0.00178293	2.16062e-05	0.0000000E+000	-100.102	0.0137461	0.00107391	0.0137879	4.46714	8.75815e-07
31621.1	72.3948	6.51764	72.6876	-5.14442	19.1075	0.00609856	0.00163205	0.77224	0.00620887	1	11	0.130358	0.0017934	2.16854e-05	0.0000000E+000	-100.094	0.0137021	0.00123359	0.0137575	5.14442	5.1866e-07
25116.9	72.5025	7.68997	72.9092	-6.05443	20.1625	0.00610895	0.001525	0.824004	0.00916672	1	11	0.130061	0.00178388	2.13149e-05	0.0000000E+000	-100.094	0.0136392	0.00144664	0.0137157	6.05443	-1.97241e-06
19948.8	72.6336	9.22621	73.2172	-7.23917	21.2175	0.00612837	0.00165175	0.86473	0.0137309	1	11	0.129723	0.00177176	2.20499e-05	0.0000000E+000	-100.11	0.0135491	0.00172106	0.013658	7.23917	-1.05236e-06
15847.7	72.7993	11.1974	73.6554	-8.74426	22.2735	0.0061319	0.00156032	0.896883	0.0207283	1	11	0.129224	0.00175444	2.23805e-05	0.0000000E+000	-100.062	0.0134189	0.00206399	0.0135767	8.74426	-8.73156e-08
12590.9	73.0251	13.6931	74.2978	-10.6204	23.1935	0.00612595	0.0014529	0.923123	0.0313555	1	11	0.137209	0.00184675	2.40089e-05	0.0000000E+000	-100.078	0.0132288	0.00248057	0.0134594	10.6204	9.90641e-07
10002.2	73.3132	16.8366	75.2217	-12.9339	24.2485	0.00613708	0.00144639	0.945078	0.047347	1	11	0.129482	0.00172133	2.08686e-05	0.0000000E+000	-100.086	0.0129568	0.00297556	0.013294	12.9339	-1.86649e-06
7944	73.6853	20.7693	76.5564	-15.7413	25.257	0.00616467	0.00182533	0.964626	0.070997	1	11	0.132943	0.00173653	2.1575e-05	0.0000000E+000	-100.086	0.0125724	0.00354372	0.0130623	15.7413	-9.57304e-08
6307.73	74.1693	25.6752	78.4875	-19.0943	26.4685	0.00618771	0.00185079	0.982727	0.105162	1	11	0.135057	0.00172074	2.22114e-05	0.0000000E+000	-100.062	0.0120399	0.00416785	0.0127409	19.0943	-1.22493e-06
5011.6	74.78	31.7552	81.2431	-23.0084	27.9297	0.00619015	0.00180061	1.00007	0.152787	1	11	0.136141	0.00167573	2.23433e-05	0.0000000E+000	-100.078	0.0113295	0.00481107	0.0123087	23.0084	-6.93572e-07
3981.27	75.5682	39.2976	85.1754	-27.4757	29.4497	0.00619243	0.00183797	1.01726	0.216539	1	11	0.136517	0.00160278	2.08692e-05	0.0000000E+000	-100.11	0.0104162	0.00541674	0.0117405	27.4757	-8.90657e-07
3161.01	76.5717	48.6499	90.7196	-32.4299	30.9697	0.00618933	0.00178797	1.03493	0.297628	1	11	0.13639	0.00150342	1.92382e-05	0.0000000E+000	-100.03	0.00930393	0.00591126	0.011023	32.4299	-8.90244e-07
2510.8	77.8329	60.1964	98.3949	-37.7186	32.4897	0.00617936	0.0017101	1.05302	0.394124	1	11	0.135964	0.00138182	1.93075e-05	0.0000000E+000	-100.086	0.00803929	0.00621764	0.0101631	37.7186	7.3239e-07
1995.64	79.3836	74.4197	108.812	-43.1514	34.0097	0.00617421	0.00164801	1.07164	0.501271	1	11	0.135382	0.00124418	2.03113e-05	0.0000000E+000	-100.054	0.00670467	0.00628542	0.00919016	43.1514	-6.27309e-07
1585.51	81.2862	92.0419	122.797	-48.5509	35.5297	0.0061983	0.00188144	1.0906	0.612717	1	11	0.134781	0.00109759	2.23065e-05	0.0000000E+000	-100.078	0.00539063	0.00610391	0.0081435	48.5509	1.11711e-06
1258.79	83.5911	113.921	141.299	-53.7301	37.05	0.00619258	0.00187604	1.10985	0.721424	1	11	0.134216	0.000949868	2.30851e-05	0.0000000E+000	-100.078	0.00418678	0.0057059	0.00707718	53.7301	-1.67272e-09
1000.32	86.3744	140.919	165.284	-58.4943	38.5677	0.00619366	0.00183255	1.12905	0.820712	1	11	0.133753	0.00080923	2.32488e-05	0.0000000E+000	-100.062	0.00316173	0.00515833	0.0060502	58.4943	-3.23014e-07
794.238	89.7163	174.57	196.275	-62.8002	40.0859	0.00619806	0.00186805	1.14789	0.908051	1	11	0.133386	0.000679588	2.38301e-05	0.0000000E+000	-100.094	0.00232885	0.00453149	0.00509489	62.8002	8.16773e-07
631.01	93.7511	216.253	235.7	-66.562	41.6064	0.0061889	0.00185373	1.16633	0.981808	1	11	0.133117	0.000564773	2.37303e-05	0.0000000E+000	-100.054	0.00168755	0.00389263	0.00424268	66.562	2.63266e-08
501.444	98.6849	267.956	285.551	-69.7819	43.1202	0.00619493	0.00181953	1.1845	1.04303	1	11	0.132926	0.000465507	2.42627e-05	0.0000000E+000	-100.078	0.00121028	0.00328623	0.00350201	69.7819	3.30969e-08
398.089	104.726	332.661	348.756	-72.5253	44.8897	0.00618484	0.000142177	1.20182	1.09345	1	12	0.135174	0.000387588	2.4716e-05	0.0000000E+000	-100.046	0.000861017	0.002735	0.00286733	72.5253	1.4701e-07
316.316	112.216	412.666	427.651	-74.7875	46.4069	0.00619312	0.00013964	1.21927	1.13532	1	12	0.134251	0.000313926	2.48456e-05	0.0000000E+000	-100.086	0.000613585	0.00225642	0.00233835	74.7875	3.23715e-07
251.044	121.594	512.65	526.873	-76.6567	47.9189	0.00619459	0.000156514	1.23666	1.17079	1	12	0.133652	0.000253671	2.48542e-05	0.0000000E+000	-100.062	0.000438027	0.00184675	0.00189799	76.6567	1.80879e-07
199.553	133.228	636.019	649.823	-78.1692	49.4432	0.00619879	0.000128204	1.25398	1.20127	1	12	0.133251	0.000205058	2.5305e-05	0.0000000E+000	-100.054	0.000315504	0.00150619	0.00153888	78.1692	2.82842e-07
158.428	147.92	790.242	803.967	-79.3979	50.9778	0.00620125	0.000149837	1.27124	1.22821	1	12	0.133	0.00016543	2.54002e-05	0.0000000E+000	-100.102	0.00022885	0.0012226	0.00124383	79.3979	-8.46033e-09
125.846	166.272	981.126	995.116	-80.3814	52.4864	0.00619619	0.000146497	1.28901	1.25302	1	12	0.132835	0.000133487	2.54337e-05	0.0000000E+000	-100.102	0.000167909	0.000990781	0.00100491	80.3814	2.27535e-08
112.19	177.069	1093.07	1107.32	-80.7985	53.2319	0.00619103	0.000118784	1.29783	1.26464	1	12	0.132771	0.000119903	2.55322e-05	0.0000000E+000	-100.086	0.000144409	0.000891459	0.000903079	80.7985	9.84623e-08