File: data/DE_57_6_60.mpt
EC-Lab ASCII FILE
Nb header lines : 60

Potentio Electrochemical Impedance Spectroscopy

Run on channel : 2 (SN 20919)
User :
CE vs. WE compliance from -10 V to 10 V
Electrode connection : standard
Ewe ctrl range : min = -10.00 V, max = 10.00 V
Acquisition started on : 02/07/2020 11:51:25
Technique started on : 02/07/2020 11:51:26
Saved on :
	File : DE_57_6_60.mpr
	Directory : P:\Chemistry\Data\VMP3\Kyler\DOE\DE_57\60c\
	Host : 10.0.4.99
Device : VMP3
Address : USB
EC-Lab for windows v11.33 (software)
Internet server v11.32 (firmware)
Command interpretor v11.33 (firmware)
Electrode material :
Initial state :
Electrolyte :
Comments :
Electrode surface area : 0.001 cm²
Characteristic mass : 0.001 g
Equivalent Weight : 0.000 g/eq.
Density : 0.000 g/cm3
Record Analogic IN 1
Cycle Definition : Charge/Discharge alternance
Mode                Single sine
E (V)               0.0000
vs.                 Eoc
tE (h:m:s)          0:00:0.0000
record              0
dI                  1.000
unit dI             mA
dt (s)              0.000
fi                  1.000
unit fi             MHz
ff                  1.000
unit ff             Hz
Nd                  20
Points              per decade
spacing             Logarithmic
Va (mV)             128.0
pw                  0.50
Na                  3
corr                0
E range min (V)     -10.000
E range max (V)     10.000
I Range             Auto
Bandwidth           5
nc cycles           0
goto Ns'            0
nr cycles           0
inc. cycle          1

freq/Hz	Re(Z)/Ohm	-Im(Z)/Ohm	|Z|/Ohm	Phase(Z)/deg	time/s	<Ewe>/V	<I>/mA	Cs/µF	Cp/µF	cycle number	I Range	|Ewe|/V	|I|/A	(Q-Qo)/mA.h	Analog IN 1/V	Re(Y)/Ohm-1	Im(Y)/Ohm-1	|Y|/Ohm-1	Phase(Y)/deg	dq/mA.h
1.00002e+06	54.0189	16.6149	56.5164	-17.0967	1.9515	-0.00469599	0.00287346	0.00957884	0.00082787	1	11	0.00103842	1.83739e-05	1.00669e-06	-0.00157965	0.0169121	0.00520176	0.017694	17.0967	1.00669e-06
707950	51.4778	10.3687	52.5117	-11.3882	3.73848	-0.00364274	0.00270471	0.0216816	0.000845341	1	11	0.00388384	7.39616e-05	2.1449e-06	-0.00165983	0.0186685	0.00376023	0.0190434	11.3882	6.74705e-07
501206	54.5522	8.45849	55.2041	-8.8137	5.52649	-0.00303186	0.00285711	0.0375414	0.000881362	1	11	0.01046	0.000189479	3.75942e-06	-0.00165983	0.0179007	0.00277556	0.0181146	8.8137	8.81072e-07
354810	57.4821	6.76878	57.8793	-6.71591	7.31349	-0.00285229	0.00296825	0.0662695	0.000906334	1	11	0.0217183	0.000375234	5.5576e-06	-0.00182019	0.0171588	0.00202052	0.0172773	6.71591	8.60937e-07
251188	58.86	5.76649	59.1418	-5.59538	9.1005	-0.0028871	0.00297328	0.109878	0.00104459	1	11	0.0386907	0.000654201	7.61563e-06	-0.00125893	0.0168279	0.00164863	0.0169085	5.59538	1.43195e-06
177832	59.8322	4.85451	60.0289	-4.63856	10.8885	-0.00287479	0.0029705	0.184359	0.00120569	1	11	0.062415	0.00103975	9.17583e-06	-0.00109857	0.0166041	0.00134718	0.0166587	4.63856	-1.17092e-06
125909	60.1957	4.45506	60.3604	-4.23272	12.6765	-0.00284851	0.00274676	0.283732	0.00154565	1	11	0.0922079	0.00152762	8.94703e-06	-0.00141929	0.016522	0.00122278	0.0165672	4.23272	1.35739e-06
89129.3	60.6852	3.82377	60.8056	-3.60544	14.1915	-0.00284515	0.00275959	0.46699	0.00184674	1	11	0.130318	0.00214319	9.27534e-06	-0.00149947	0.0164133	0.0010342	0.0164459	3.60544	-7.69456e-07
63093.8	61.0185	3.80571	61.1371	-3.5689	15.9795	-0.00274092	0.0029419	0.662822	0.00256838	1	11	0.129614	0.00212006	1.89768e-05	-0.00141929	0.016325	0.00101818	0.0163567	3.5689	4.44692e-06
44666.7	61.2861	4.10385	61.4233	-3.83093	17.7665	-0.00267593	0.00276442	0.86825	0.00387579	1	11	0.129406	0.00210679	1.43184e-05	-0.00149947	0.0162441	0.00108774	0.0162805	3.83093	-2.56189e-06
31621.1	61.5102	4.84558	61.7008	-4.50428	19.4185	-0.00264332	0.00347807	1.03872	0.0064063	1	11	0.140193	0.00227214	1.12494e-05	-0.00165983	0.0161572	0.00127281	0.0162072	4.50428	1.36922e-07
22389	61.6856	5.95502	61.9724	-5.51415	21.0705	-0.00257806	0.00516147	1.19372	0.0110223	1	11	0.130114	0.00209955	1.19219e-05	-0.00125893	0.0160616	0.00155055	0.0161362	5.51415	2.55049e-06
15847.7	61.9812	7.79491	62.4695	-7.16803	22.5865	-0.00258855	0.00270123	1.28838	0.02006	1	11	0.135484	0.00216881	1.85272e-05	-0.00117875	0.0158827	0.00199745	0.0160078	7.16803	1.92296e-06
11217.7	62.3009	10.3188	63.1497	-9.4044	24.1005	-0.00257356	0.00304876	1.37495	0.0367115	1	11	0.133179	0.00210895	1.61349e-05	-0.00157965	0.0156226	0.00258753	0.0158354	9.4044	-1.80534e-06
7944	62.8067	13.809	64.3068	-12.4	25.568	-0.00255171	0.00344332	1.45084	0.0669003	1	11	0.140595	0.00218631	1.56854e-05	-0.00165983	0.0151877	0.00333924	0.0155504	12.4	-7.44348e-07
5621.06	63.4681	18.7896	66.191	-16.4912	27.6493	-0.00251642	0.00343049	1.5069	0.121429	1	11	0.131536	0.00198722	1.94102e-05	-0.00141929	0.0144863	0.00428864	0.0151078	16.4912	2.2661e-07
3981.27	64.2003	25.7549	69.1736	-21.859	29.9297	-0.00251685	0.00371131	1.55216	0.215168	1	11	0.13293	0.00192169	1.79238e-05	-0.00101839	0.013417	0.00538244	0.0144564	21.859	-1.21706e-07
2817.3	65.166	35.3581	74.1404	-28.4836	32.2099	-0.00248755	0.00267186	1.59772	0.363384	1	11	0.133091	0.00179512	1.67155e-05	-0.00149947	0.0118553	0.00643248	0.0134879	28.4836	-9.59304e-09
1995.64	66.4254	48.6346	82.3265	-36.2104	34.4897	-0.00250928	0.00352824	1.63981	0.572274	1	11	0.132618	0.00161087	2.10835e-05	-0.00149947	0.00980065	0.00717572	0.0121468	36.2104	6.40362e-08
1411.84	68.2987	67.0739	95.7268	-44.4816	36.7712	-0.0025234	0.00427738	1.68067	0.825129	1	11	0.131851	0.00137737	2.42406e-05	-0.000938206	0.00745325	0.00731959	0.0104464	44.4816	4.55323e-07
1000.32	70.8617	92.6339	116.629	-52.5853	39.0487	-0.00250453	0.00368285	1.71756	1.08352	1	11	0.131061	0.00112373	2.66675e-05	-0.00117875	0.00520949	0.00681011	0.00857417	52.5853	8.57288e-07
707.509	75.0435	128.649	148.937	-59.7442	41.3295	-0.00250789	0.00363192	1.74856	1.30464	1	11	0.130453	0.000875894	2.94439e-05	-0.00109857	0.00338306	0.00579967	0.00671426	59.7442	1.66052e-06
501.444	79.5694	177.418	194.444	-65.8444	43.6012	-0.00250626	0.00327212	1.78896	1.48939	1	11	0.13005	0.000668832	3.26599e-05	-0.00109857	0.00210455	0.00469256	0.00514288	65.8444	6.49955e-07
354.66	87.1493	246.709	261.65	-70.5444	45.8799	-0.00251971	0.0035914	1.81896	1.61716	1	11	0.129812	0.000496128	3.46227e-05	-0.00141929	0.00127299	0.00360367	0.00382191	70.5444	6.41303e-07
251.044	99.3125	342.223	356.341	-73.8173	48.3979	-0.00237702	0.00251102	1.85251	1.70862	1	12	0.131121	0.000367964	3.97853e-05	-0.00165983	0.000782116	0.00269511	0.0028063	73.8173	1.24441e-06
177.781	116.17	477.193	491.13	-76.3178	50.6893	-0.0024948	0.00695499	1.87603	1.77107	1	12	0.130394	0.000265498	4.46335e-05	-0.00133911	0.000481617	0.00197834	0.00203612	76.3178	1.34465e-06
125.846	147.626	656.289	672.688	-77.3229	52.9634	-0.00250296	0.00717083	1.92702	1.83421	1	12	0.129944	0.000193171	4.9444e-05	-0.00133911	0.000326238	0.00145033	0.00148657	77.3229	1.75044e-06
89.116	196.6	888.948	910.429	-77.5292	55.2357	-0.00253436	0.00836897	2.00904	1.91535	1	12	0.129715	0.000142477	5.40214e-05	-0.00117875	0.000237188	0.00107247	0.00109838	77.5292	1.48404e-06
63.0823	271.819	1262.18	1291.11	-77.8465	57.5318	-0.00255554	0.00870046	1.99891	1.91031	1	12	0.129664	0.000100428	5.86339e-05	-0.00165983	0.000163061	0.000757166	0.000774525	77.8465	1.46084e-06
44.6712	469.399	1671.44	1736.1	-74.3134	59.7962	-0.00251104	0.00778568	2.13158	1.97576	1	12	0.129526	7.46077e-05	6.33682e-05	-0.00254182	0.000155738	0.000554551	0.000576004	74.3134	1.36981e-06
31.6296	767.324	2341.42	2463.95	-71.8551	62.0325	-0.00253965	0.00829689	2.14906	1.94063	1	12	0.129524	5.25675e-05	6.72122e-05	-0.000777844	0.000126391	0.000385671	0.000405853	71.8551	1.45872e-06
22.3854	1163.86	3045.96	3260.74	-69.0881	64.5094	-0.00241029	0.000623127	2.33417	2.03679	1	13	0.129694	3.97743e-05	7.08066e-05	-0.000777844	0.000109463	0.000286478	0.000306679	69.0881	4.47947e-07
15.8576	1923.97	3899.14	4347.98	-63.7367	66.8379	-0.00252107	0.000740876	2.57404	2.07003	1	13	0.12959	2.98047e-05	7.1294e-05	-0.00157965	0.000101771	0.00020625	0.000229992	63.7367	1.39251e-07
11.2249	3055.34	4743.11	5642	-57.2118	69.2149	-0.00264254	0.000600363	2.98935	2.11269	1	13	0.129514	2.29554e-05	7.16749e-05	-0.00174001	9.59828e-05	0.000149004	0.000177242	57.2118	2.58955e-08
7.93953	4582.8	5399.56	7082.19	-49.6776	71.7587	-0.00251477	0.000744849	3.7125	2.15799	1	13	0.129537	1.82905e-05	7.23782e-05	-0.00125893	9.13685e-05	0.000107652	0.000141199	49.6776	3.53862e-07
5.6205	6404.99	5599.21	8507.35	-41.1598	73.6237	-0.00258425	0.000684951	5.05729	2.1907	1	13	0.129593	1.5233e-05	7.26869e-05	-0.000617483	8.84972e-05	7.73638e-05	0.000117545	41.1598	5.25573e-08
3.97785	8096.02	5305.57	9679.6	-33.2381	76.1592	-0.00250755	0.000759923	7.54118	2.26563	1	13	0.129522	1.33809e-05	7.33421e-05	-0.00141929	8.64086e-05	5.66262e-05	0.00010331	33.2381	4.03887e-07
2.81836	9547.52	4632.99	10612.2	-25.8853	79.6567	-0.00251245	0.000796499	12.1888	2.32311	1	13	0.129516	1.22044e-05	7.413e-05	-0.00198056	8.47766e-05	4.11383e-05	9.42307e-05	25.8853	6.14418e-07
1.99706	10602.7	3789.16	11259.4	-19.6657	84.5187	-0.00249023	0.000687067	21.0323	2.38199	1	13	0.12951	1.15023e-05	7.51922e-05	-0.00109857	8.36341e-05	2.98889e-05	8.88145e-05	19.6657	6.43165e-07
1.41224	11301.1	3034.39	11701.4	-15.0296	91.3252	-0.00249102	0.00100846	37.14	2.49751	1	13	0.129514	1.10683e-05	7.62664e-05	-0.00125893	8.25365e-05	2.21613e-05	8.54599e-05	15.0296	1.35592e-07
1.00006	11749.5	2249.82	11963	-10.8399	100.871	-0.00250024	0.000885633	70.7367	2.50185	1	13	0.129527	1.08273e-05	7.88653e-05	-0.00141929	8.20996e-05	1.57206e-05	8.35912e-05	10.8399	7.44448e-07